Data from FLMT087451__2__13-38-05-298.txt Node

Date: Tue Jun 04 13:38:05 JST 2024
User: power
Spectrometer: FLMT08745
Trigger mode: 0
Integration Time (sec): 5.000000E-2
Scans to average: 11
Electric dark correction enabled: true
Nonlinearity correction enabled: false
Boxcar width: 0
XAxis mode: Wavelengths
Number of Pixels in Spectrum: 3648
>>>>>Begin Spectral Data<<<<<
194.923	-63.5
195.148	-63.5
195.372	-63.5
195.597	-91.64
195.821	-65.72
196.046	1.3
196.271	-16.11
196.495	-27.4
196.72	11.29
196.944	-31.1
197.169	7.59
197.393	18.51
197.618	11.29
197.842	26.66
198.067	-5
198.291	-6.11
198.516	9.07
198.74	-30.55
198.964	-6.11
199.189	-0.19
199.413	48.87
199.637	-1.85
199.862	-19.07
200.086	5.74
200.31	50.72
200.535	-5.18
200.759	51.65
200.983	18.14
201.207	-7.03
201.432	-20.92
201.656	41.1
201.88	24.25
202.104	-0.93
202.328	16.85
202.552	18.7
202.777	12.03
203.001	10.18
203.225	-8.89
203.449	-16.85
203.673	38.14
203.897	13.33
204.121	0
204.345	35.36
204.569	-19.81
204.793	16.66
205.017	1.3
205.241	18.51
205.465	-30.92
205.689	26.66
205.912	-5.55
206.136	-28.14
206.36	-26.66
206.584	3.7
206.808	-15
207.032	21.1
207.255	14.25
207.479	33.32
207.703	-2.96
207.927	1.85
208.15	-4.63
208.374	11.85
208.598	-37.58
208.822	9.26
209.045	-12.4
209.269	14.25
209.492	65.35
209.716	31.1
209.94	-1.85
210.163	28.32
210.387	28.32
210.61	45.73
210.834	-16.29
211.057	8.7
211.281	-14.07
211.504	0.74
211.728	-5
211.951	53.32
212.175	9.07
212.398	19.44
212.622	-7.41
212.845	63.13
213.068	16.48
213.292	17.03
213.515	-25.36
213.738	21.29
213.962	-28.69
214.185	-6.66
214.408	19.81
214.631	20.92
214.855	16.48
215.078	-1.85
215.301	-6.48
215.524	6.11
215.747	16.85
215.971	3.33
216.194	5.37
216.417	7.41
216.64	6.66
216.863	168.46
217.086	9.81
217.309	-4.81
217.532	42.21
217.755	15.92
217.978	-0.74
218.201	28.51
218.424	21.47
218.647	-6.29
218.87	-20.92
219.093	10.18
219.316	34.06
219.539	5.92
219.762	-11.66
219.985	29.06
220.207	-14.81
220.43	4.07
220.653	13.88
220.876	-2.04
221.099	20.36
221.321	2.78
221.544	1.85
221.767	34.99
221.99	-17.22
222.212	9.63
222.435	-0.74
222.658	15.74
222.88	-31.47
223.103	38.88
223.326	-9.26
223.548	29.99
223.771	-4.63
223.993	-4.26
224.216	-1.48
224.438	13.88
224.661	7.03
224.883	24.99
225.106	32.21
225.328	32.4
225.551	14.44
225.773	8.33
225.996	2.59
226.218	33.69
226.44	2.78
226.663	29.81
226.885	8.89
227.108	36.28
227.33	-6.85
227.552	-5.55
227.774	3.33
227.997	22.59
228.219	0.93
228.441	18.88
228.663	40.17
228.886	0.93
229.108	-8.15
229.33	14.44
229.552	9.81
229.774	2.41
229.996	14.25
230.219	23.88
230.441	-0.56
230.663	-0.56
230.885	-15.74
231.107	7.78
231.329	16.29
231.551	47.95
231.773	6.66
231.995	17.96
232.217	11.85
232.439	2.59
232.661	-20.36
232.883	17.59
233.105	6.85
233.326	0.37
233.548	20.55
233.77	20.73
233.992	28.14
234.214	26.84
234.436	-24.44
234.657	23.88
234.879	59.8
235.101	-8.15
235.323	-11.11
235.544	18.88
235.766	17.4
235.988	33.14
236.21	22.4
236.431	42.58
236.653	31.1
236.874	29.06
237.096	26.1
237.318	-19.99
237.539	15.37
237.761	-0.19
237.982	24.62
238.204	69.24
238.425	-15.55
238.647	18.7
238.868	-2.22
239.09	19.99
239.311	-10
239.533	26.1
239.754	10
239.975	25.92
240.197	5.74
240.418	6.48
240.64	12.22
240.861	14.25
241.082	12.4
241.304	14.44
241.525	12.03
241.746	7.41
241.967	-20.55
242.189	23.7
242.41	8.89
242.631	71.46
242.852	2.04
243.073	31.29
243.294	6.48
243.516	24.07
243.737	2.22
243.958	5.92
244.179	16.11
244.4	29.06
244.621	-18.14
244.842	-13.33
245.063	34.43
245.284	41.28
245.505	6.29
245.726	25.55
245.947	11.85
246.168	20.36
246.389	-25.92
246.61	13.88
246.831	46.47
247.052	-2.78
247.272	-0.37
247.493	13.51
247.714	27.58
247.935	-6.48
248.156	30.18
248.376	38.32
248.597	34.99
248.818	13.88
249.039	-16.11
249.259	14.25
249.48	-8.52
249.701	24.99
249.921	-17.59
250.142	21.29
250.363	5.55
250.583	17.4
250.804	24.62
251.025	23.7
251.245	27.77
251.466	40.54
251.686	-9.44
251.907	-8.7
252.127	10.92
252.348	40.36
252.568	17.03
252.789	37.95
253.009	24.07
253.23	44.43
253.45	0
253.67	28.14
253.891	-8.52
254.111	35.91
254.331	18.33
254.552	9.26
254.772	12.96
254.992	18.7
255.213	3.89
255.433	22.77
255.653	18.88
255.873	31.47
256.093	10.37
256.314	13.33
256.534	-3.52
256.754	36.1
256.974	18.14
257.194	-0.19
257.414	-9.81
257.634	4.44
257.855	5.18
258.075	-0.74
258.295	-0.19
258.515	-4.44
258.735	24.07
258.955	16.66
259.175	-3.89
259.395	3.33
259.615	25.55
259.835	33.69
260.054	3.15
260.274	40.54
260.494	52.02
260.714	53.5
260.934	11.29
261.154	34.06
261.374	1.3
261.593	-22.77
261.813	-15.55
262.033	14.07
262.253	-4.07
262.472	37.03
262.692	20.55
262.912	20.55
263.132	24.25
263.351	20.73
263.571	18.88
263.791	36.1
264.01	46.84
264.23	32.95
264.449	12.22
264.669	49.8
264.888	43.5
265.108	2.78
265.328	39.06
265.547	36.65
265.767	43.69
265.986	10.92
266.205	3.33
266.425	24.07
266.644	11.11
266.864	11.66
267.083	39.8
267.303	14.44
267.522	12.4
267.741	20.18
267.961	16.85
268.18	-2.04
268.399	15.74
268.618	34.06
268.838	24.25
269.057	22.59
269.276	7.96
269.495	26.66
269.715	23.51
269.934	12.77
270.153	20.36
270.372	-3.15
270.591	5
270.81	22.59
271.029	41.84
271.249	22.96
271.468	-6.85
271.687	44.99
271.906	18.33
272.125	33.69
272.344	20.36
272.563	18.51
272.782	19.81
273.001	11.48
273.22	4.07
273.439	36.47
273.657	33.32
273.876	22.4
274.095	-19.81
274.314	22.77
274.533	21.66
274.752	7.03
274.971	6.29
275.189	36.28
275.408	32.95
275.627	33.32
275.846	13.88
276.064	-8.33
276.283	-13.88
276.502	22.77
276.72	-10.18
276.939	14.25
277.158	2.78
277.376	8.33
277.595	2.78
277.814	-8.52
278.032	56.65
278.251	-9.26
278.469	1.11
278.688	9.07
278.906	57.76
279.125	34.62
279.343	3.7
279.562	29.81
279.78	-16.11
279.999	10.55
280.217	-9.26
280.435	35.54
280.654	-25.73
280.872	12.77
281.091	27.21
281.309	40.36
281.527	22.59
281.746	17.4
281.964	12.59
282.182	14.07
282.4	22.59
282.619	56.46
282.837	33.88
283.055	12.77
283.273	-0.74
283.491	4.26
283.71	27.4
283.928	23.88
284.146	-9.07
284.364	26.47
284.582	-10.37
284.8	-7.96
285.018	-9.07
285.236	-3.52
285.454	24.07
285.672	15.74
285.89	-17.22
286.108	-9.81
286.326	-6.48
286.544	11.66
286.762	24.07
286.98	-2.96
287.198	43.69
287.416	78.68
287.634	20.18
287.851	17.96
288.069	10.92
288.287	19.62
288.505	-30.18
288.723	14.25
288.94	15.55
289.158	-0.56
289.376	70.9
289.594	8.15
289.811	-0.37
290.029	26.84
290.247	41.65
290.464	30.36
290.682	-6.29
290.9	22.03
291.117	15.55
291.335	17.4
291.552	-20.92
291.77	26.47
291.987	-24.62
292.205	19.44
292.422	28.69
292.64	31.66
292.857	-5.18
293.075	-3.15
293.292	5.55
293.51	13.7
293.727	10
293.945	18.14
294.162	7.03
294.379	10.74
294.597	44.99
294.814	12.96
295.031	15.37
295.249	26.66
295.466	-1.3
295.683	8.52
295.9	26.66
296.118	-5.92
296.335	-8.89
296.552	24.62
296.769	53.87
296.986	15.18
297.204	-3.33
297.421	35.54
297.638	17.22
297.855	44.43
298.072	-7.22
298.289	25.18
298.506	12.77
298.723	36.28
298.94	32.95
299.157	7.03
299.374	15.74
299.591	38.14
299.808	-6.48
300.025	5.37
300.242	8.33
300.459	24.99
300.676	4.44
300.893	24.99
301.109	22.22
301.326	38.32
301.543	41.65
301.76	10.37
301.977	-1.3
302.193	-1.67
302.41	36.47
302.627	3.7
302.844	-5.74
303.06	17.96
303.277	22.77
303.494	39.06
303.71	12.22
303.927	56.46
304.144	17.22
304.36	22.96
304.577	8.7
304.793	58.13
305.01	6.11
305.227	32.58
305.443	15.74
305.66	101.82
305.876	6.85
306.093	18.33
306.309	34.43
306.526	2.22
306.742	34.06
306.958	44.43
307.175	37.21
307.391	17.22
307.608	12.59
307.824	52.95
308.04	26.47
308.257	1.48
308.473	46.84
308.689	23.33
308.905	36.28
309.122	27.77
309.338	-8.15
309.554	19.44
309.77	29.06
309.986	32.77
310.203	-26.84
310.419	26.47
310.635	29.44
310.851	28.14
311.067	39.99
311.283	37.95
311.499	5.37
311.715	10.37
311.931	40.54
312.147	41.65
312.363	0.37
312.579	31.29
312.795	33.69
313.011	-7.78
313.227	0.93
313.443	44.25
313.659	6.29
313.875	30.92
314.091	36.65
314.307	37.21
314.523	33.51
314.738	47.95
314.954	107
315.17	121.81
315.386	149.58
315.602	186.05
315.817	176.8
316.033	135.51
316.249	80.16
316.465	105.15
316.68	42.58
316.896	43.32
317.112	-9.26
317.327	-4.81
317.543	55.35
317.758	-0.74
317.974	30.73
318.19	39.43
318.405	17.03
318.621	13.33
318.836	-0.19
319.052	16.11
319.267	19.25
319.483	-0.19
319.698	24.62
319.914	19.07
320.129	2.04
320.344	35.73
320.56	39.43
320.775	54.8
320.99	27.77
321.206	25.73
321.421	17.03
321.636	40.91
321.852	24.07
322.067	11.48
322.282	-17.22
322.498	-3.7
322.713	-2.96
322.928	53.32
323.143	-3.33
323.358	31.1
323.574	26.66
323.789	8.7
324.004	-3.33
324.219	32.95
324.434	21.1
324.649	14.25
324.864	49.24
325.079	8.89
325.294	15.18
325.509	32.4
325.724	45.36
325.939	2.59
326.154	-6.29
326.369	70.53
326.584	13.14
326.799	23.33
327.014	47.76
327.229	4.44
327.444	5.92
327.659	-20.18
327.873	13.33
328.088	33.69
328.303	6.29
328.518	-3.15
328.733	-16.29
328.947	28.88
329.162	3.52
329.377	10.92
329.591	24.44
329.806	12.96
330.021	-5.74
330.235	56.83
330.45	23.14
330.665	6.29
330.879	-11.29
331.094	22.59
331.309	8.33
331.523	33.69
331.738	33.51
331.952	39.43
332.167	32.95
332.381	-5.37
332.596	53.32
332.81	4.44
333.025	10.92
333.239	40.91
333.453	26.66
333.668	18.88
333.882	25.18
334.097	30.92
334.311	33.32
334.525	41.28
334.74	6.66
334.954	17.22
335.168	50.54
335.382	34.62
335.597	23.33
335.811	-10.55
336.025	7.59
336.239	-15.74
336.453	3.89
336.668	37.03
336.882	17.4
337.096	55.17
337.31	13.88
337.524	22.22
337.738	22.22
337.952	47.21
338.166	24.81
338.38	29.81
338.594	42.76
338.808	5.74
339.022	58.13
339.236	36.47
339.45	28.32
339.664	72.01
339.878	5.55
340.092	4.63
340.306	-13.14
340.52	28.51
340.734	13.7
340.948	18.7
341.161	19.25
341.375	46.47
341.589	43.13
341.803	32.77
342.017	17.96
342.23	12.96
342.444	30.73
342.658	15.55
342.871	37.77
343.085	7.96
343.299	-17.4
343.512	2.78
343.726	17.96
343.94	17.03
344.153	34.8
344.367	56.83
344.58	-2.78
344.794	18.14
345.008	14.81
345.221	20.36
345.435	29.44
345.648	39.62
345.862	-11.85
346.075	15.37
346.288	5.55
346.502	39.43
346.715	13.7
346.929	-15
347.142	50.17
347.355	49.06
347.569	29.25
347.782	28.69
347.995	31.84
348.209	26.84
348.422	-13.7
348.635	27.03
348.848	25.36
349.062	16.66
349.275	40.17
349.488	19.62
349.701	29.44
349.914	-9.07
350.128	33.88
350.341	12.59
350.554	-9.63
350.767	29.25
350.98	14.44
351.193	7.96
351.406	7.22
351.619	48.69
351.832	9.26
352.045	48.69
352.258	12.03
352.471	35.91
352.684	2.78
352.897	29.06
353.11	-15
353.323	36.65
353.536	-24.07
353.748	32.58
353.961	0.19
354.174	12.03
354.387	16.85
354.6	13.7
354.813	1.3
355.025	23.14
355.238	20.18
355.451	31.29
355.664	7.78
355.876	54.98
356.089	37.58
356.302	27.58
356.514	17.59
356.727	23.33
356.94	9.26
357.152	1.85
357.365	-7.03
357.577	12.59
357.79	2.78
358.002	23.51
358.215	8.7
358.427	20.18
358.64	65.72
358.852	29.44
359.065	6.85
359.277	36.47
359.49	49.61
359.702	51.84
359.915	30.18
360.127	7.41
360.339	12.03
360.552	8.52
360.764	26.66
360.976	32.03
361.189	-5.92
361.401	56.46
361.613	44.99
361.825	6.85
362.038	26.29
362.25	48.87
362.462	31.29
362.674	23.88
362.886	55.72
363.099	36.65
363.311	21.1
363.523	32.58
363.735	37.77
363.947	11.85
364.159	41.28
364.371	44.62
364.583	-10.37
364.795	16.29
365.007	11.66
365.219	6.11
365.431	21.1
365.643	10.74
365.855	-2.22
366.067	-16.11
366.279	-19.62
366.491	19.81
366.703	17.59
366.914	36.84
367.126	29.99
367.338	70.9
367.55	46.84
367.762	42.39
367.974	8.7
368.185	14.25
368.397	34.8
368.609	32.95
368.82	0.19
369.032	27.58
369.244	8.15
369.456	49.06
369.667	13.7
369.879	29.06
370.09	-7.78
370.302	32.77
370.514	30.18
370.725	16.11
370.937	-18.88
371.148	0.19
371.36	17.4
371.571	20.92
371.783	15.74
371.994	10.74
372.206	23.33
372.417	77.57
372.629	16.66
372.84	32.95
373.051	9.44
373.263	28.69
373.474	25.55
373.685	11.29
373.897	28.14
374.108	32.58
374.319	9.81
374.531	36.47
374.742	6.85
374.953	32.4
375.164	0.37
375.375	24.99
375.587	6.11
375.798	26.29
376.009	35.73
376.22	46.1
376.431	24.81
376.642	29.62
376.853	30.92
377.065	39.99
377.276	12.22
377.487	39.62
377.698	-4.07
377.909	47.21
378.12	29.99
378.331	18.51
378.542	53.5
378.753	63.68
378.964	29.99
379.174	79.79
379.385	36.47
379.596	44.06
379.807	68.68
380.018	60.35
380.229	59.24
380.44	77.75
380.65	11.11
380.861	37.4
381.072	10.74
381.283	59.8
381.493	24.81
381.704	54.43
381.915	11.85
382.126	29.06
382.336	37.77
382.547	33.88
382.757	26.29
382.968	25.55
383.179	37.03
383.389	59.61
383.6	46.65
383.81	49.24
384.021	85.34
384.231	111.82
384.442	70.72
384.652	198.27
384.863	615.36
385.073	1681.13
385.284	3074.2
385.494	4184.22
385.705	4983.96
385.915	5586.18
386.125	5665.6
386.336	4924.35
386.546	4171.08
386.756	3397.62
386.967	2573.62
387.177	1810.35
387.387	1156.85
387.598	655.35
387.808	376.73
388.018	210.67
388.228	105.89
388.439	69.61
388.649	36.1
388.859	41.47
389.069	70.72
389.279	46.28
389.489	39.99
389.699	48.32
389.909	36.1
390.12	34.8
390.33	43.87
390.54	50.91
390.75	50.72
390.96	32.95
391.17	18.51
391.38	24.62
391.59	-2.96
391.799	21.1
392.009	33.32
392.219	42.58
392.429	24.44
392.639	57.2
392.849	61.83
393.059	141.99
393.269	154.58
393.478	157.73
393.688	129.22
393.898	160.87
394.108	85.9
394.317	90.53
394.527	61.28
394.737	75.16
394.947	84.05
395.156	45.54
395.366	40.36
395.576	34.25
395.785	26.1
395.995	30.92
396.204	37.03
396.414	8.52
396.624	34.62
396.833	25.18
397.043	0
397.252	24.99
397.462	49.24
397.671	32.03
397.881	-16.66
398.09	24.81
398.299	-10.18
398.509	38.88
398.718	24.81
398.928	116.81
399.137	173.65
399.346	187.35
399.556	219
399.765	205.3
399.974	173.65
400.184	189.75
400.393	167.17
400.602	116.07
400.811	113.48
401.021	50.54
401.23	69.61
401.439	51.09
401.648	37.77
401.857	15.18
402.066	24.07
402.276	30.55
402.485	48.69
402.694	22.22
402.903	35.54
403.112	9.26
403.321	32.95
403.53	22.59
403.739	5.55
403.948	13.7
404.157	47.02
404.366	7.96
404.575	11.85
404.784	30.73
404.993	12.59
405.202	59.8
405.411	58.87
405.619	-6.66
405.828	20.92
406.037	51.65
406.246	16.48
406.455	4.44
406.663	27.77
406.872	24.25
407.081	27.95
407.29	54.8
407.498	42.39
407.707	10.92
407.916	24.07
408.124	64.79
408.333	61.09
408.542	18.51
408.75	42.95
408.959	28.69
409.168	54.06
409.376	38.14
409.585	54.98
409.793	54.98
410.002	28.51
410.21	61.09
410.419	32.21
410.627	31.66
410.836	25.36
411.044	31.66
411.253	22.4
411.461	40.73
411.669	50.54
411.878	49.61
412.086	8.15
412.294	59.98
412.503	-3.7
412.711	41.28
412.919	29.06
413.128	2.96
413.336	8.52
413.544	43.13
413.752	24.81
413.961	38.88
414.169	4.44
414.377	53.5
414.585	64.42
414.793	7.96
415.001	17.96
415.209	39.43
415.418	-12.03
415.626	56.09
415.834	3.7
416.042	28.32
416.25	-42.58
416.458	17.59
416.666	-13.7
416.874	37.21
417.082	44.8
417.29	21.66
417.498	0.56
417.706	24.44
417.913	2.04
418.121	6.66
418.329	61.83
418.537	21.47
418.745	-7.22
418.953	31.29
419.161	20.36
419.368	33.14
419.576	-42.21
419.784	11.29
419.992	-2.22
420.199	19.25
420.407	-7.59
420.615	45.91
420.822	8.33
421.03	24.25
421.238	8.7
421.445	3.89
421.653	-15.74
421.861	34.62
422.068	-12.59
422.276	-0.74
422.483	-11.48
422.691	24.99
422.898	38.14
423.106	2.78
423.313	14.25
423.521	35.73
423.728	35.54
423.936	26.66
424.143	14.62
424.35	29.81
424.558	4.63
424.765	41.1
424.973	10.74
425.18	-4.81
425.387	41.65
425.594	27.03
425.802	55.35
426.009	5.55
426.216	5.55
426.424	62.57
426.631	63.13
426.838	45.36
427.045	-1.67
427.252	16.11
427.459	41.47
427.667	39.06
427.874	14.44
428.081	39.8
428.288	56.46
428.495	0.56
428.702	53.69
428.909	15.74
429.116	-0.56
429.323	39.43
429.53	12.77
429.737	28.32
429.944	27.21
430.151	25.92
430.358	27.95
430.565	38.32
430.772	25.18
430.979	54.98
431.185	75.35
431.392	49.06
431.599	56.09
431.806	53.32
432.013	41.65
432.219	50.72
432.426	30.92
432.633	16.48
432.84	14.44
433.046	16.48
433.253	16.48
433.46	48.13
433.666	11.11
433.873	44.62
434.08	14.07
434.286	32.95
434.493	24.07
434.7	31.66
434.906	27.4
435.113	17.4
435.319	62.94
435.526	32.21
435.732	68.87
435.939	80.9
436.145	17.03
436.352	73.87
436.558	41.84
436.765	73.87
436.971	42.39
437.177	34.43
437.384	4.07
437.59	2.22
437.796	5.55
438.003	21.1
438.209	69.42
438.415	24.44
438.622	24.07
438.828	55.91
439.034	38.69
439.24	22.4
439.447	35.17
439.653	12.22
439.859	10.92
440.065	27.77
440.271	-6.29
440.477	35.36
440.683	16.66
440.89	26.84
441.096	64.61
441.302	53.13
441.508	51.84
441.714	5.92
441.92	15
442.126	13.14
442.332	48.13
442.538	39.62
442.744	52.76
442.95	27.03
443.156	111.45
443.361	401.17
443.567	816.59
443.773	1168.33
443.979	1464.35
444.185	1673.35
444.391	1766.84
444.596	1679.83
444.802	1379.93
445.008	1298.84
445.214	1086.69
445.42	930.63
445.625	680.15
445.831	507.43
446.037	358.22
446.242	232.33
446.448	136.62
446.654	85.34
446.859	48.87
447.065	65.72
447.27	57.02
447.476	44.43
447.682	34.43
447.887	53.32
448.093	41.28
448.298	16.48
448.504	40.17
448.709	28.88
448.915	49.43
449.12	21.1
449.325	27.95
449.531	22.22
449.736	32.58
449.942	-14.25
450.147	8.89
450.352	47.95
450.558	-7.41
450.763	18.7
450.968	58.68
451.174	28.88
451.379	17.59
451.584	26.47
451.789	20.92
451.995	33.32
452.2	5
452.405	4.81
452.61	12.03
452.815	57.2
453.02	24.62
453.226	-10.18
453.431	8.89
453.636	7.96
453.841	21.29
454.046	26.1
454.251	22.22
454.456	22.96
454.661	41.84
454.866	15.74
455.071	24.25
455.276	20.92
455.481	23.7
455.686	31.84
455.891	-14.44
456.095	24.07
456.3	8.33
456.505	16.48
456.71	29.62
456.915	18.33
457.12	13.51
457.324	7.78
457.529	40.17
457.734	35.91
457.939	14.62
458.144	4.07
458.348	8.52
458.553	16.85
458.758	10.92
458.962	8.7
459.167	27.21
459.372	36.1
459.576	22.77
459.781	37.21
459.985	61.28
460.19	39.43
460.394	25.36
460.599	41.1
460.803	23.88
461.008	46.84
461.212	7.03
461.417	48.13
461.621	-20.36
461.826	28.51
462.03	-3.7
462.235	20.55
462.439	6.11
462.643	75.35
462.848	57.39
463.052	15.92
463.256	42.02
463.461	0.56
463.665	-10.74
463.869	64.05
464.074	20.36
464.278	39.62
464.482	34.06
464.686	-12.96
464.89	45.17
465.095	82.01
465.299	16.29
465.503	18.14
465.707	20.36
465.911	15.74
466.115	47.21
466.319	3.33
466.523	51.09
466.727	30.92
466.931	22.77
467.135	17.96
467.339	20.18
467.543	79.05
467.747	132.92
467.951	181.98
468.155	199.57
468.359	290.83
468.563	290.46
468.767	251.4
468.971	196.23
469.175	201.05
469.379	168.09
469.582	196.42
469.786	103.67
469.99	84.42
470.194	74.61
470.397	61.65
470.601	48.69
470.805	63.68
471.009	2.04
471.212	25.92
471.416	39.43
471.62	24.99
471.823	23.7
472.027	68.5
472.23	-21.66
472.434	77.75
472.638	19.44
472.841	18.33
473.045	17.77
473.248	16.66
473.452	20.92
473.655	43.5
473.859	29.99
474.062	17.96
474.266	23.33
474.469	-1.48
474.672	21.84
474.876	42.76
475.079	-10.18
475.283	36.1
475.486	14.07
475.689	23.14
475.893	26.1
476.096	50.72
476.299	34.8
476.502	22.4
476.706	21.47
476.909	30.36
477.112	34.99
477.315	52.58
477.519	52.58
477.722	38.69
477.925	16.66
478.128	25.73
478.331	19.99
478.534	15.55
478.737	35.36
478.94	44.8
479.143	-2.04
479.346	42.02
479.549	49.06
479.752	35.36
479.955	18.33
480.158	37.4
480.361	28.51
480.564	24.44
480.767	13.88
480.97	11.85
481.173	25.92
481.376	51.09
481.579	15.55
481.782	31.1
481.984	25.55
482.187	64.42
482.39	145.51
482.593	343.04
482.796	462.26
482.998	554.27
483.201	673.86
483.404	666.45
483.606	541.86
483.809	531.31
484.012	431.53
484.214	400.61
484.417	351.37
484.62	276.76
484.822	194.2
485.025	161.99
485.227	151.25
485.43	99.6
485.632	59.98
485.835	80.9
486.037	42.21
486.24	31.1
486.442	96.27
486.645	34.43
486.847	26.66
487.05	34.99
487.252	42.76
487.455	26.66
487.657	45.36
487.859	27.95
488.062	33.88
488.264	82.57
488.466	225.3
488.668	481.14
488.871	590.92
489.073	765.31
489.275	869.54
489.477	943.22
489.68	840.84
489.882	728.47
490.084	631.47
490.286	600.55
490.488	467.26
490.69	403.57
490.893	330.45
491.095	181.05
491.297	185.5
491.499	145.32
491.701	117.56
491.903	64.05
492.105	49.98
492.307	42.95
492.509	89.42
492.711	29.06
492.913	57.76
493.115	50.72
493.317	12.96
493.518	53.87
493.72	26.66
493.922	56.83
494.124	27.03
494.326	76.27
494.528	5.55
494.73	59.24
494.931	61.65
495.133	23.14
495.335	48.69
495.537	30.73
495.738	63.68
495.94	61.46
496.142	15
496.343	34.06
496.545	7.22
496.747	62.39
496.948	37.58
497.15	54.61
497.351	69.98
497.553	129.03
497.755	557.41
497.956	1446.76
498.158	2118.21
498.359	2663.41
498.561	3162.51
498.762	3503.33
498.964	3412.06
499.165	2934.99
499.366	2588.62
499.568	2313.15
499.769	2028.43
499.971	1671.87
500.172	1327.17
500.373	973.21
500.575	694.04
500.776	542.05
500.977	351.92
501.178	242.14
501.38	191.61
501.581	188.09
501.782	143.1
501.983	144.77
502.185	119.22
502.386	110.15
502.587	47.58
502.788	102.56
502.989	75.53
503.19	81.09
503.391	52.95
503.593	59.8
503.794	26.1
503.995	37.77
504.196	81.64
504.397	42.95
504.598	29.25
504.799	13.33
505	67.39
505.201	69.42
505.402	9.63
505.602	40.17
505.803	-2.04
506.004	10.18
506.205	55.72
506.406	37.95
506.607	26.66
506.808	72.94
507.008	15.74
507.209	42.58
507.41	43.13
507.611	17.59
507.812	10
508.012	28.69
508.213	25.73
508.414	8.15
508.614	8.52
508.815	10.18
509.016	38.88
509.216	53.87
509.417	33.32
509.617	24.99
509.818	7.78
510.019	44.99
510.219	-4.07
510.42	15.74
510.62	2.96
510.821	41.84
511.021	30.92
511.222	38.69
511.422	21.84
511.623	32.58
511.823	56.09
512.023	18.51
512.224	44.8
512.424	16.66
512.624	37.03
512.825	-1.85
513.025	25.36
513.225	-5.18
513.426	24.07
513.626	8.7
513.826	49.43
514.026	51.65
514.227	49.06
514.427	27.58
514.627	-18.7
514.827	18.7
515.027	49.43
515.228	11.48
515.428	35.54
515.628	29.81
515.828	25.55
516.028	24.99
516.228	50.72
516.428	33.69
516.628	27.77
516.828	12.4
517.028	48.13
517.228	15.18
517.428	14.62
517.628	73.31
517.828	33.69
518.028	44.43
518.228	34.99
518.428	7.22
518.627	50.72
518.827	24.07
519.027	35.17
519.227	59.98
519.427	29.62
519.626	28.32
519.826	45.73
520.026	9.26
520.226	25.92
520.425	36.47
520.625	12.03
520.825	15.18
521.024	2.41
521.224	15.74
521.424	28.14
521.623	-12.22
521.823	-4.81
522.023	29.62
522.222	12.96
522.422	20.18
522.621	57.2
522.821	20.18
523.02	33.32
523.22	32.77
523.419	42.39
523.619	52.21
523.818	20.36
524.017	7.59
524.217	48.32
524.416	63.68
524.616	90.53
524.815	24.44
525.014	30.18
525.214	19.62
525.413	27.4
525.612	50.35
525.812	24.07
526.011	13.51
526.21	30.92
526.409	36.28
526.608	42.95
526.808	24.62
527.007	39.43
527.206	72.38
527.405	31.29
527.604	30.36
527.803	43.69
528.003	38.51
528.202	51.28
528.401	79.97
528.6	18.7
528.799	20.36
528.998	29.25
529.197	9.81
529.396	7.59
529.595	44.62
529.794	29.25
529.993	26.84
530.192	45.17
530.39	29.06
530.589	14.25
530.788	34.43
530.987	-13.51
531.186	16.29
531.385	43.5
531.583	30.92
531.782	44.06
531.981	35.73
532.18	25.73
532.379	2.41
532.577	8.33
532.776	37.03
532.975	24.25
533.173	29.81
533.372	23.33
533.571	6.29
533.769	26.1
533.968	47.58
534.166	15
534.365	-11.85
534.564	29.44
534.762	24.25
534.961	-1.11
535.159	90.71
535.358	15.92
535.556	16.11
535.755	23.88
535.953	5.18
536.151	70.35
536.35	14.81
536.548	3.7
536.747	30.92
536.945	17.4
537.143	17.59
537.342	1.85
537.54	19.25
537.738	31.1
537.937	36.1
538.135	18.88
538.333	34.62
538.531	8.7
538.73	5.37
538.928	26.66
539.126	15.18
539.324	61.83
539.522	44.99
539.72	37.95
539.919	17.59
540.117	6.11
540.315	33.32
540.513	36.84
540.711	33.51
540.909	13.7
541.107	9.44
541.305	11.11
541.503	75.72
541.701	22.4
541.899	42.58
542.097	42.39
542.295	11.66
542.493	-5.18
542.691	-6.11
542.888	19.99
543.086	27.58
543.284	0.56
543.482	60.91
543.68	39.06
543.878	45.36
544.075	24.99
544.273	6.48
544.471	23.33
544.669	42.76
544.866	64.79
545.064	30.73
545.262	23.7
545.459	41.84
545.657	61.28
545.855	5.37
546.052	-19.62
546.25	49.61
546.447	81.83
546.645	6.29
546.842	28.51
547.04	43.32
547.238	12.77
547.435	21.66
547.633	29.99
547.83	52.76
548.027	16.66
548.225	42.95
548.422	31.84
548.62	16.29
548.817	3.89
549.014	19.25
549.212	40.54
549.409	37.77
549.606	11.29
549.804	47.39
550.001	10.18
550.198	47.21
550.396	17.77
550.593	37.21
550.79	24.25
550.987	11.85
551.184	15.18
551.382	71.46
551.579	-5.37
551.776	-2.41
551.973	-1.11
552.17	10.74
552.367	20.18
552.564	15.55
552.761	36.84
552.958	20.73
553.155	31.66
553.353	31.1
553.55	45.73
553.746	21.29
553.943	17.22
554.14	68.68
554.337	30.55
554.534	38.88
554.731	47.76
554.928	21.84
555.125	62.57
555.322	15.92
555.519	11.66
555.715	27.21
555.912	6.85
556.109	35.36
556.306	10.74
556.503	51.65
556.699	19.25
556.896	36.65
557.093	34.99
557.289	33.88
557.486	30.92
557.683	74.98
557.879	9.44
558.076	20.36
558.273	-2.41
558.469	9.63
558.666	-0.74
558.862	41.65
559.059	22.77
559.255	59.8
559.452	-19.99
559.648	34.06
559.845	13.51
560.041	24.99
560.238	65.35
560.434	16.66
560.631	15.37
560.827	57.39
561.023	14.25
561.22	17.4
561.416	2.22
561.612	16.48
561.809	22.03
562.005	22.96
562.201	5.18
562.398	44.99
562.594	13.33
562.79	20.92
562.986	48.87
563.182	29.99
563.379	-2.41
563.575	24.25
563.771	10.18
563.967	58.31
564.163	1.11
564.359	16.48
564.555	60.91
564.751	27.95
564.947	40.36
565.144	32.03
565.34	46.84
565.536	57.57
565.732	35.91
565.928	21.1
566.123	39.06
566.319	32.95
566.515	82.75
566.711	31.47
566.907	32.95
567.103	33.51
567.299	-7.59
567.495	48.13
567.691	20.36
567.886	42.02
568.082	33.51
568.278	67.39
568.474	38.69
568.669	40.36
568.865	44.06
569.061	41.28
569.257	37.95
569.452	58.5
569.648	28.51
569.844	45.36
570.039	28.32
570.235	52.39
570.43	42.21
570.626	64.79
570.822	49.43
571.017	78.31
571.213	52.21
571.408	45.91
571.604	44.62
571.799	34.8
571.995	28.32
572.19	49.24
572.385	43.87
572.581	18.51
572.776	77.75
572.972	59.06
573.167	35.91
573.362	46.65
573.558	50.54
573.753	52.21
573.948	77.57
574.144	43.32
574.339	44.62
574.534	74.24
574.729	24.25
574.925	64.61
575.12	63.31
575.315	49.06
575.51	47.02
575.705	39.8
575.9	54.43
576.096	71.09
576.291	38.32
576.486	44.62
576.681	42.76
576.876	78.68
577.071	48.87
577.266	69.98
577.461	80.71
577.656	77.75
577.851	34.43
578.046	77.75
578.241	55.35
578.436	78.68
578.631	67.57
578.826	117.37
579.021	44.99
579.215	75.9
579.41	120.52
579.605	95.53
579.8	76.83
579.995	111.63
580.189	62.39
580.384	103.67
580.579	85.53
580.774	87.93
580.968	107.93
581.163	82.2
581.358	129.4
581.552	136.44
581.747	107.19
581.942	155.14
582.136	151.06
582.331	139.96
582.526	159.02
582.72	193.09
582.915	204.93
583.109	248.62
583.304	410.61
583.498	1440.84
583.693	5210
583.887	12174.45
584.082	19759.8
584.276	27084.68
584.471	32425.76
584.665	37939.55
584.859	38801.87
585.054	35948.15
585.248	31550.11
585.442	28884.85
585.637	26486.73
585.831	23919.03
586.025	20782.44
586.22	16780.38
586.414	13300.01
586.608	9969.22
586.802	7107.92
586.997	4706.46
587.191	3016.26
587.385	2007.14
587.579	1275.7
587.773	922.3
587.967	639.43
588.162	482.62
588.356	377.66
588.55	324.16
588.744	243.26
588.938	213.27
589.132	194.2
589.326	174.94
589.52	124.03
589.714	114.59
589.908	136.25
590.102	136.44
590.296	116.81
590.49	110.15
590.684	98.67
590.877	115.89
591.071	82.57
591.265	82.57
591.459	68.87
591.653	77.94
591.847	39.99
592.04	62.39
592.234	86.27
592.428	58.5
592.622	80.71
592.815	70.16
593.009	74.98
593.203	120.33
593.397	79.23
593.59	73.87
593.784	47.39
593.977	39.25
594.171	27.95
594.365	87.19
594.558	78.12
594.752	45.73
594.945	44.43
595.139	28.32
595.332	51.65
595.526	55.35
595.719	41.84
595.913	62.76
596.106	23.7
596.3	54.98
596.493	64.24
596.687	48.13
596.88	80.16
597.073	61.65
597.267	37.21
597.46	48.87
597.653	68.68
597.847	54.43
598.04	50.72
598.233	74.42
598.426	-1.48
598.62	15.74
598.813	22.96
599.006	62.2
599.199	26.1
599.392	55.35
599.586	54.8
599.779	28.32
599.972	18.7
600.165	69.61
600.358	23.88
600.551	44.62
600.744	33.69
600.937	54.43
601.13	31.47
601.323	34.43
601.516	46.84
601.709	52.39
601.902	45.91
602.095	59.06
602.288	36.28
602.481	61.28
602.674	28.51
602.867	52.02
603.06	49.61
603.252	2.96
603.445	63.31
603.638	50.54
603.831	40.36
604.024	15.55
604.216	36.65
604.409	21.84
604.602	2.22
604.795	79.23
604.987	35.17
605.18	46.84
605.373	56.83
605.565	25.55
605.758	29.81
605.951	12.4
606.143	35.54
606.336	72.57
606.528	42.76
606.721	21.29
606.913	34.99
607.106	50.17
607.298	79.79
607.491	42.58
607.683	14.62
607.876	37.95
608.068	0.37
608.261	24.44
608.453	52.39
608.646	38.14
608.838	29.25
609.03	59.98
609.223	16.29
609.415	2.41
609.607	13.51
609.8	37.03
609.992	4.81
610.184	44.8
610.376	35.17
610.569	54.24
610.761	26.66
610.953	30.55
611.145	15.74
611.337	54.8
611.529	33.69
611.722	50.91
611.914	1.48
612.106	33.69
612.298	32.58
612.49	66.83
612.682	90.34
612.874	77.01
613.066	15.92
613.258	55.35
613.45	15.18
613.642	27.95
613.834	49.8
614.026	39.62
614.218	47.58
614.41	48.32
614.602	-1.11
614.793	79.42
614.985	19.62
615.177	45.36
615.369	52.21
615.561	27.77
615.753	30.55
615.944	63.31
616.136	38.51
616.328	3.7
616.52	-3.52
616.711	-9.81
616.903	19.62
617.095	55.17
617.286	2.41
617.478	56.83
617.67	-15.92
617.861	55.35
618.053	51.47
618.244	42.21
618.436	22.59
618.627	17.03
618.819	14.44
619.01	55.54
619.202	7.96
619.393	40.54
619.585	24.99
619.776	32.95
619.968	16.66
620.159	30.73
620.351	4.81
620.542	5.37
620.733	42.02
620.925	4.63
621.116	46.65
621.307	0.19
621.499	63.31
621.69	61.28
621.881	7.03
622.072	27.77
622.264	6.48
622.455	49.61
622.646	47.21
622.837	24.07
623.028	47.02
623.22	27.4
623.411	73.5
623.602	19.07
623.793	29.81
623.984	31.66
624.175	24.62
624.366	69.79
624.557	15.92
624.748	5.37
624.939	28.69
625.13	80.53
625.321	-6.85
625.512	22.22
625.703	23.14
625.894	29.81
626.085	-2.78
626.276	-3.33
626.467	20.36
626.658	26.66
626.848	38.69
627.039	36.84
627.23	-2.22
627.421	34.25
627.612	14.25
627.802	31.66
627.993	37.21
628.184	62.57
628.375	39.25
628.565	47.76
628.756	-17.59
628.947	31.47
629.137	53.69
629.328	12.03
629.519	18.88
629.709	67.2
629.9	30.73
630.09	37.77
630.281	15.37
630.471	28.69
630.662	8.7
630.852	23.14
631.043	26.84
631.233	40.54
631.424	15.92
631.614	16.66
631.805	32.21
631.995	42.39
632.185	18.51
632.376	23.88
632.566	33.88
632.756	26.47
632.947	10.55
633.137	12.22
633.327	46.28
633.518	32.21
633.708	52.95
633.898	63.13
634.088	41.28
634.279	16.66
634.469	28.88
634.659	42.02
634.849	34.25
635.039	1.85
635.229	39.25
635.42	15.92
635.61	15
635.8	-4.63
635.99	17.96
636.18	30.55
636.37	15.55
636.56	47.95
636.75	51.09
636.94	42.02
637.13	4.07
637.32	73.5
637.51	18.7
637.7	47.95
637.89	4.07
638.079	46.84
638.269	-5.37
638.459	17.03
638.649	3.89
638.839	82.57
639.029	59.8
639.218	35.17
639.408	-0.19
639.598	44.99
639.788	45.73
639.977	17.22
640.167	7.59
640.357	59.61
640.546	-9.81
640.736	24.44
640.926	25.73
641.115	59.8
641.305	34.99
641.495	42.39
641.684	24.81
641.874	20.18
642.063	-2.41
642.253	39.25
642.442	18.51
642.632	36.28
642.821	5.18
643.011	-4.26
643.2	40.54
643.39	32.77
643.579	43.87
643.768	22.59
643.958	23.88
644.147	33.32
644.336	26.66
644.526	70.9
644.715	12.96
644.904	64.61
645.094	29.81
645.283	14.81
645.472	52.02
645.661	33.69
645.851	11.66
646.04	54.43
646.229	-23.7
646.418	59.24
646.607	38.69
646.796	44.62
646.986	27.4
647.175	54.98
647.364	27.95
647.553	50.54
647.742	30.73
647.931	40.54
648.12	32.95
648.309	17.22
648.498	23.33
648.687	85.9
648.876	-8.89
649.065	26.1
649.254	30.73
649.443	27.77
649.632	39.25
649.82	56.09
650.009	12.03
650.198	26.84
650.387	11.11
650.576	62.39
650.765	46.84
650.953	40.91
651.142	17.77
651.331	77.75
651.52	43.69
651.708	91.64
651.897	53.13
652.086	122.18
652.274	410.05
652.463	1162.78
652.652	1948.08
652.84	2792.07
653.029	3635.32
653.217	4362.13
653.406	4777.73
653.594	4745.15
653.783	4546.51
653.972	4153.67
654.16	3741.58
654.349	3545.35
654.537	3182.13
654.725	2859.83
654.914	2430.34
655.102	1899.21
655.291	1375.3
655.479	908.78
655.667	550.01
655.856	375.25
656.044	215.3
656.232	207.34
656.421	122.92
656.609	75.9
656.797	86.45
656.986	59.06
657.174	67.76
657.362	24.81
657.55	53.32
657.738	37.95
657.927	48.13
658.115	36.84
658.303	39.06
658.491	52.95
658.679	19.62
658.867	57.94
659.055	4.26
659.243	46.28
659.431	34.99
659.619	34.99
659.807	34.43
659.995	52.58
660.183	25.55
660.371	42.76
660.559	65.72
660.747	17.22
660.935	39.8
661.123	5.74
661.311	32.21
661.499	43.13
661.687	17.22
661.875	54.61
662.062	58.13
662.25	33.88
662.438	50.72
662.626	62.2
662.813	58.31
663.001	50.35
663.189	22.4
663.377	76.27
663.564	163.28
663.752	587.59
663.94	1549.88
664.127	2871.12
664.315	4167
664.502	5619.13
664.69	6947.23
664.878	8045.76
665.065	8426.94
665.253	8255.51
665.44	7740.68
665.628	7138.09
665.815	6575.31
666.003	6053.07
666.19	5455.85
666.378	4805.5
666.565	3860.43
666.752	2920.55
666.94	2028.98
667.127	1358.08
667.315	846.95
667.502	521.13
667.689	283.98
667.877	232.7
668.064	198.46
668.251	117.93
668.438	79.05
668.626	87.93
668.813	94.04
669	48.87
669.187	50.17
669.374	54.24
669.562	42.58
669.749	76.64
669.936	44.8
670.123	20.36
670.31	52.02
670.497	40.36
670.684	21.1
670.871	16.85
671.058	37.77
671.245	46.1
671.432	34.25
671.619	17.59
671.806	64.79
671.993	93.67
672.18	49.8
672.367	13.51
672.554	6.29
672.741	40.17
672.928	42.02
673.115	44.62
673.302	32.95
673.488	23.14
673.675	35.54
673.862	20.92
674.049	32.4
674.235	28.51
674.422	27.21
674.609	-2.22
674.796	49.24
674.982	19.62
675.169	32.21
675.356	16.48
675.542	43.69
675.729	27.58
675.916	38.69
676.102	70.9
676.289	54.06
676.475	19.81
676.662	23.7
676.848	41.1
677.035	16.66
677.221	19.07
677.408	44.62
677.594	66.65
677.781	44.62
677.967	30.18
678.154	17.03
678.34	29.99
678.526	9.63
678.713	20.92
678.899	4.44
679.085	53.13
679.272	1.11
679.458	6.85
679.644	41.84
679.831	-5.74
680.017	46.28
680.203	32.77
680.389	19.81
680.576	49.24
680.762	9.44
680.948	30.36
681.134	-6.48
681.32	16.85
681.506	23.88
681.692	34.06
681.879	22.96
682.065	42.95
682.251	54.06
682.437	5.37
682.623	26.47
682.809	-6.85
682.995	-4.07
683.181	50.17
683.367	54.61
683.553	9.07
683.739	-2.04
683.924	19.81
684.11	22.4
684.296	55.72
684.482	80.34
684.668	23.33
684.854	-3.33
685.04	24.25
685.225	6.85
685.411	12.59
685.597	5
685.783	8.7
685.968	-5.74
686.154	29.06
686.34	-5.92
686.526	12.4
686.711	-10.92
686.897	59.43
687.083	-20.55
687.268	55.17
687.454	27.77
687.639	37.58
687.825	2.59
688.01	70.72
688.196	21.84
688.382	16.66
688.567	32.77
688.752	46.84
688.938	-4.26
689.123	63.87
689.309	23.14
689.494	2.22
689.68	35.17
689.865	80.71
690.05	42.76
690.236	35.91
690.421	-2.04
690.606	-7.41
690.792	28.14
690.977	29.06
691.162	17.03
691.348	38.69
691.533	-24.25
691.718	-18.14
691.903	14.81
692.089	18.51
692.274	2.04
692.459	-2.22
692.644	29.06
692.829	38.69
693.014	15
693.199	34.8
693.384	7.78
693.569	38.32
693.755	21.66
693.94	10.92
694.125	42.02
694.31	16.29
694.495	33.14
694.68	10.55
694.864	1.85
695.049	-0.37
695.234	-11.11
695.419	26.1
695.604	-10
695.789	29.62
695.974	24.99
696.159	-10.55
696.344	12.4
696.528	15.55
696.713	-4.63
696.898	39.99
697.083	19.81
697.267	-4.63
697.452	12.4
697.637	22.59
697.822	22.77
698.006	23.88
698.191	17.77
698.375	34.25
698.56	47.39
698.745	29.62
698.929	7.78
699.114	42.39
699.298	29.81
699.483	46.47
699.668	21.1
699.852	12.96
700.037	7.78
700.221	-10.55
700.405	43.87
700.59	56.09
700.774	14.07
700.959	13.14
701.143	20.92
701.328	40.36
701.512	-9.81
701.696	36.84
701.881	49.61
702.065	45.17
702.249	107.37
702.433	318.42
702.618	811.41
702.802	1499.15
702.986	2126.91
703.17	3009.59
703.355	3465
703.539	4026.68
703.723	4331.02
703.907	4194.77
704.091	3953.74
704.275	3498.33
704.46	3053.65
704.644	2734.13
704.828	2341.66
705.012	2050.46
705.196	1777.58
705.38	1504.33
705.564	1311.8
705.748	1008.94
705.932	784.19
706.116	556.3
706.3	360.07
706.484	235.11
706.668	179.39
706.851	139.59
707.035	99.41
707.219	117.37
707.403	40.17
707.587	27.03
707.771	57.02
707.954	31.47
708.138	51.09
708.322	29.25
708.506	-4.07
708.689	41.84
708.873	-4.81
709.057	45.73
709.241	50.17
709.424	60.54
709.608	31.47
709.792	24.44
709.975	29.99
710.159	-8.7
710.342	11.66
710.526	52.95
710.709	17.77
710.893	33.51
711.077	20.18
711.26	36.84
711.443	7.59
711.627	66.83
711.81	55.54
711.994	24.62
712.177	-1.85
712.361	14.07
712.544	15.18
712.727	18.14
712.911	8.52
713.094	9.81
713.277	29.06
713.461	60.91
713.644	-2.04
713.827	75.72
714.011	14.25
714.194	31.29
714.377	26.1
714.56	85.9
714.743	32.4
714.927	18.88
715.11	32.4
715.293	3.52
715.476	21.47
715.659	22.96
715.842	26.47
716.025	18.14
716.208	-3.15
716.391	49.61
716.575	48.69
716.758	44.8
716.941	24.44
717.124	29.06
717.306	30.92
717.489	-2.78
717.672	-5.55
717.855	7.78
718.038	-24.81
718.221	47.02
718.404	-14.44
718.587	9.07
718.77	13.33
718.952	21.66
719.135	19.44
719.318	5.92
719.501	22.59
719.684	2.41
719.866	51.09
720.049	14.81
720.232	17.59
720.414	59.06
720.597	29.06
720.78	18.7
720.962	4.07
721.145	33.32
721.328	20.92
721.51	4.26
721.693	-8.7
721.875	14.25
722.058	-15
722.24	-5.92
722.423	41.84
722.605	12.77
722.788	12.22
722.97	29.81
723.153	-11.11
723.335	19.25
723.518	2.78
723.7	58.87
723.882	39.62
724.065	54.8
724.247	117
724.429	197.53
724.612	270.84
724.794	323.6
724.976	414.5
725.159	500.77
725.341	467.26
725.523	447.08
725.705	404.5
725.888	388.76
726.07	283.61
726.252	257.51
726.434	221.23
726.616	195.12
726.798	144.4
726.98	190.86
727.162	160.5
727.345	169.58
727.527	102.56
727.709	98.86
727.891	78.86
728.073	70.16
728.255	19.25
728.437	85.34
728.619	17.59
728.801	42.58
728.982	25.18
729.164	19.25
729.346	28.14
729.528	25.18
729.71	-15.92
729.892	31.1
730.074	52.02
730.255	42.95
730.437	4.26
730.619	32.58
730.801	57.2
730.983	13.7
731.164	38.69
731.346	57.39
731.528	-6.85
731.709	39.8
731.891	8.89
732.073	24.99
732.254	36.28
732.436	-7.96
732.617	6.66
732.799	32.95
732.981	0.93
733.162	-6.85
733.344	-12.59
733.525	6.66
733.707	25.18
733.888	22.96
734.07	-11.66
734.251	17.77
734.433	21.29
734.614	7.96
734.795	-1.67
734.977	26.1
735.158	15.74
735.34	53.87
735.521	21.29
735.702	14.81
735.883	22.22
736.065	31.47
736.246	29.44
736.427	27.95
736.609	22.4
736.79	4.07
736.971	-11.48
737.152	26.47
737.333	10
737.514	5.37
737.696	36.47
737.877	1.48
738.058	-2.04
738.239	7.78
738.42	35.73
738.601	21.84
738.782	20.18
738.963	55.17
739.144	4.44
739.325	22.59
739.506	32.95
739.687	2.78
739.868	45.73
740.049	30.92
740.23	17.96
740.411	40.17
740.592	33.51
740.773	1.3
740.953	36.84
741.134	32.58
741.315	8.52
741.496	36.84
741.677	16.66
741.857	20.73
742.038	-24.44
742.219	-2.78
742.4	4.63
742.58	-11.66
742.761	-0.56
742.942	24.62
743.122	3.33
743.303	-6.85
743.484	21.84
743.664	14.62
743.845	18.7
744.025	26.84
744.206	-0.37
744.386	32.21
744.567	-38.51
744.748	36.65
744.928	38.14
745.108	55.35
745.289	15.37
745.469	-7.03
745.65	30.73
745.83	29.62
746.011	1.3
746.191	30.18
746.371	-8.33
746.552	35.36
746.732	13.33
746.912	18.14
747.093	28.32
747.273	20.73
747.453	4.63
747.633	57.57
747.814	-27.4
747.994	22.03
748.174	7.96
748.354	31.66
748.534	12.4
748.715	29.25
748.895	21.84
749.075	-4.63
749.255	30.55
749.435	29.25
749.615	19.81
749.795	24.25
749.975	42.39
750.155	-7.96
750.335	-2.41
750.515	38.88
750.695	14.25
750.875	17.59
751.055	-5.92
751.235	22.59
751.415	-0.56
751.595	-9.63
751.775	38.51
751.954	27.4
752.134	22.96
752.314	50.91
752.494	26.66
752.674	0.93
752.854	30.55
753.033	-7.78
753.213	-17.22
753.393	13.7
753.572	40.36
753.752	8.52
753.932	27.58
754.111	6.66
754.291	24.44
754.471	-7.22
754.65	18.14
754.83	8.89
755.01	3.7
755.189	10.18
755.369	11.11
755.548	20.36
755.728	43.32
755.907	28.69
756.087	3.33
756.266	58.31
756.446	-12.59
756.625	37.58
756.804	81.09
756.984	18.14
757.163	16.29
757.343	6.48
757.522	-44.43
757.701	11.66
757.881	13.51
758.06	3.33
758.239	-18.51
758.418	28.88
758.598	38.51
758.777	16.66
758.956	16.48
759.135	26.84
759.315	4.07
759.494	52.95
759.673	-5.37
759.852	23.88
760.031	12.59
760.21	3.15
760.389	-26.84
760.568	15.74
760.748	17.96
760.927	23.33
761.106	20.18
761.285	29.81
761.464	20.73
761.643	16.11
761.822	39.99
762	34.43
762.179	-8.33
762.358	16.85
762.537	5.18
762.716	-7.03
762.895	-12.4
763.074	26.84
763.253	24.07
763.431	-9.44
763.61	28.88
763.789	18.7
763.968	0.74
764.147	12.96
764.325	12.22
764.504	14.62
764.683	-21.84
764.861	24.62
765.04	7.78
765.219	14.81
765.397	-10
765.576	28.14
765.755	21.66
765.933	19.62
766.112	37.03
766.29	4.63
766.469	-19.99
766.647	20.55
766.826	-9.26
767.004	33.14
767.183	37.4
767.361	27.03
767.54	30.55
767.718	55.72
767.897	-10.92
768.075	11.85
768.253	-3.15
768.432	24.99
768.61	10
768.788	15.37
768.967	7.96
769.145	10.37
769.323	37.95
769.501	8.15
769.68	4.63
769.858	29.99
770.036	-19.25
770.214	38.88
770.393	0.74
770.571	32.4
770.749	-0.93
770.927	-8.33
771.105	32.77
771.283	12.59
771.461	7.41
771.639	32.77
771.817	1.3
771.995	-5.74
772.173	38.88
772.351	18.51
772.529	6.29
772.707	32.58
772.885	-4.81
773.063	57.76
773.241	61.09
773.419	17.59
773.597	13.88
773.775	14.25
773.953	-18.88
774.131	18.7
774.308	44.43
774.486	43.87
774.664	42.02
774.842	29.44
775.02	27.4
775.197	59.06
775.375	26.84
775.553	14.44
775.73	0.19
775.908	26.84
776.086	18.7
776.263	57.57
776.441	27.58
776.619	-9.63
776.796	-5.92
776.974	30.36
777.151	-0.74
777.329	2.78
777.506	62.39
777.684	27.95
777.861	18.7
778.039	27.03
778.216	37.58
778.394	41.65
778.571	12.59
778.749	-17.96
778.926	15
779.103	13.33
779.281	8.52
779.458	47.02
779.635	15.55
779.813	21.1
779.99	-6.11
780.167	-24.07
780.345	22.96
780.522	49.43
780.699	-0.93
780.876	-13.51
781.054	13.7
781.231	18.7
781.408	-9.44
781.585	32.03
781.762	-0.37
781.939	17.59
782.116	11.48
782.294	37.4
782.471	-17.03
782.648	16.29
782.825	-10
783.002	12.59
783.179	-11.66
783.356	3.15
783.533	22.96
783.71	14.81
783.887	14.62
784.064	53.69
784.24	0.37
784.417	3.7
784.594	12.03
784.771	24.25
784.948	29.06
785.125	-18.88
785.302	8.15
785.478	79.42
785.655	7.59
785.832	-14.81
786.009	6.85
786.185	26.29
786.362	63.5
786.539	11.11
786.715	72.2
786.892	31.1
787.069	58.68
787.245	18.7
787.422	-2.22
787.599	39.8
787.775	38.88
787.952	-1.48
788.128	32.95
788.305	2.41
788.481	5.74
788.658	1.3
788.834	26.47
789.011	-3.15
789.187	29.06
789.364	-10
789.54	40.17
789.717	13.7
789.893	-21.47
790.069	30.92
790.246	-1.3
790.422	17.22
790.598	13.33
790.775	39.43
790.951	61.28
791.127	43.5
791.304	8.52
791.48	-8.15
791.656	2.78
791.832	10.74
792.008	-19.44
792.185	28.32
792.361	22.4
792.537	54.61
792.713	49.24
792.889	15.55
793.065	25.55
793.241	6.85
793.417	-21.47
793.593	-16.48
793.769	6.66
793.945	-12.96
794.121	4.26
794.297	24.25
794.473	7.96
794.649	68.87
794.825	10
795.001	-8.7
795.177	-22.03
795.353	25.36
795.529	17.03
795.705	21.47
795.881	12.77
796.056	26.66
796.232	-7.96
796.408	44.06
796.584	14.62
796.76	23.14
796.935	17.59
797.111	10.55
797.287	4.81
797.462	27.21
797.638	13.88
797.814	19.99
797.989	21.84
798.165	31.29
798.341	56.46
798.516	29.06
798.692	20.18
798.867	55.91
799.043	9.81
799.218	28.69
799.394	10.55
799.569	76.09
799.745	30.36
799.92	2.22
800.096	17.59
800.271	38.32
800.447	68.68
800.622	39.62
800.797	-6.48
800.973	-10
801.148	29.81
801.323	30.73
801.499	0
801.674	3.7
801.849	30.55
802.025	14.07
802.2	31.29
802.375	33.14
802.55	26.66
802.725	-3.89
802.901	21.47
803.076	14.07
803.251	-2.41
803.426	6.29
803.601	25.36
803.776	-0.56
803.951	-9.63
804.127	43.5
804.302	7.96
804.477	18.7
804.652	21.84
804.827	7.22
805.002	-18.7
805.177	22.4
805.352	31.1
805.526	27.58
805.701	41.65
805.876	35.54
806.051	-3.52
806.226	24.81
806.401	32.58
806.576	28.51
806.751	3.89
806.925	-7.78
807.1	-0.74
807.275	19.25
807.45	9.81
807.625	97.01
807.799	-8.52
807.974	17.03
808.149	2.96
808.323	25.73
808.498	28.69
808.673	51.09
808.847	-9.63
809.022	17.59
809.197	25.73
809.371	8.15
809.546	35.54
809.72	13.7
809.895	8.15
810.069	-13.51
810.244	53.32
810.418	5
810.593	51.65
810.767	57.76
810.942	42.58
811.116	64.61
811.29	15.74
811.465	27.4
811.639	8.52
811.814	39.06
811.988	38.51
812.162	51.28
812.337	3.52
812.511	33.32
812.685	17.22
812.859	25.18
813.034	16.11
813.208	10
813.382	-0.93
813.556	26.84
813.73	31.1
813.905	6.85
814.079	-4.07
814.253	16.11
814.427	44.06
814.601	31.1
814.775	20.55
814.949	18.88
815.123	22.03
815.297	0
815.471	14.62
815.645	5.92
815.819	10.74
815.993	2.78
816.167	34.8
816.341	22.96
816.515	15.55
816.689	-14.62
816.863	34.62
817.037	16.85
817.21	-1.3
817.384	11.85
817.558	12.22
817.732	50.72
817.906	27.21
818.079	-5
818.253	30.55
818.427	17.77
818.601	2.59
818.774	38.14
818.948	29.06
819.122	66.46
819.295	8.7
819.469	18.7
819.643	21.84
819.816	4.07
819.99	22.59
820.163	32.95
820.337	1.3
820.511	47.58
820.684	29.44
820.858	42.02
821.031	-19.25
821.205	11.29
821.378	26.47
821.551	13.14
821.725	7.59
821.898	16.85
822.072	33.51
822.245	72.38
822.418	26.1
822.592	-7.59
822.765	-4.26
822.938	33.88
823.112	12.77
823.285	62.57
823.458	14.25
823.631	23.14
823.805	36.1
823.978	39.62
824.151	30.55
824.324	26.84
824.497	21.66
824.671	5.55
824.844	19.44
825.017	55.91
825.19	-33.69
825.363	-3.52
825.536	25.18
825.709	23.7
825.882	-4.07
826.055	24.44
826.228	-28.14
826.401	9.26
826.574	4.81
826.747	-3.7
826.92	24.07
827.093	15.74
827.266	36.28
827.439	13.33
827.612	3.15
827.785	20.92
827.957	-24.44
828.13	11.85
828.303	3.15
828.476	25.36
828.649	-8.52
828.821	50.54
828.994	10.37
829.167	-0.37
829.34	28.14
829.512	31.1
829.685	37.58
829.858	35.54
830.03	11.11
830.203	38.14
830.375	36.65
830.548	22.59
830.721	10.37
830.893	22.77
831.066	26.66
831.238	31.47
831.411	66.28
831.583	45.73
831.756	28.14
831.928	26.47
832.101	-10
832.273	32.03
832.446	10.74
832.618	25.92
832.79	13.14
832.963	7.78
833.135	5.37
833.307	25.92
833.48	17.59
833.652	24.07
833.824	37.03
833.997	18.7
834.169	5.55
834.341	31.84
834.513	10.74
834.686	25.36
834.858	19.99
835.03	28.88
835.202	2.04
835.374	-0.93
835.546	31.84
835.718	-7.96
835.891	8.7
836.063	20.18
836.235	-14.62
836.407	5.92
836.579	25.55
836.751	0.37
836.923	20.18
837.095	40.17
837.267	0.93
837.439	55.72
837.611	11.85
837.782	19.25
837.954	12.96
838.126	45.17
838.298	53.5
838.47	62.39
838.642	17.03
838.814	32.21
838.985	-1.11
839.157	2.78
839.329	-8.52
839.501	46.65
839.672	-17.77
839.844	28.32
840.016	10.37
840.188	53.5
840.359	24.99
840.531	-1.67
840.702	3.52
840.874	54.98
841.046	-16.48
841.217	30.36
841.389	9.44
841.56	40.17
841.732	-0.56
841.903	25.92
842.075	3.15
842.246	-3.89
842.418	26.66
842.589	35.73
842.761	35.36
842.932	26.1
843.104	53.32
843.275	44.06
843.446	-3.89
843.618	18.33
843.789	25.18
843.96	-43.13
844.132	23.7
844.303	39.43
844.474	3.33
844.646	30.36
844.817	1.48
844.988	17.22
845.159	63.68
845.331	41.84
845.502	2.78
845.673	27.95
845.844	-36.28
846.015	34.43
846.186	11.48
846.357	14.81
846.528	24.07
846.7	22.4
846.871	-15.74
847.042	11.29
847.213	28.88
847.384	106.08
847.555	30.36
847.726	23.33
847.897	34.99
848.067	-8.7
848.238	15.37
848.409	15.18
848.58	35.73
848.751	24.62
848.922	19.99
849.093	16.66
849.264	21.1
849.434	40.54
849.605	-3.7
849.776	7.22
849.947	-14.25
850.117	2.22
850.288	31.47
850.459	7.96
850.63	23.88
850.8	27.58
850.971	60.17
851.142	18.88
851.312	-34.62
851.483	1.48
851.653	3.7
851.824	17.22
851.995	-2.78
852.165	70.53
852.336	-0.74
852.506	57.39
852.677	39.99
852.847	36.1
853.018	17.22
853.188	21.29
853.358	27.77
853.529	62.02
853.699	24.81
853.87	29.99
854.04	-39.8
854.21	12.96
854.381	-3.52
854.551	35.36
854.721	10.37
854.892	13.14
855.062	5.55
855.232	18.7
855.402	23.33
855.573	8.52
855.743	38.69
855.913	27.21
856.083	4.63
856.253	25.73
856.423	-20.55
856.594	3.15
856.764	20.92
856.934	49.43
857.104	-4.26
857.274	36.28
857.444	-8.33
857.614	1.11
857.784	5.92
857.954	-7.41
858.124	-28.69
858.294	-13.33
858.464	24.81
858.634	-7.78
858.804	22.77
858.974	19.81
859.143	5.37
859.313	-17.4
859.483	5.55
859.653	-0.19
859.823	-3.52
859.993	31.47
860.162	23.33
860.332	35.91
860.502	-26.29
860.672	29.62
860.841	20.73
861.011	-0.93
861.181	-18.14
861.35	66.09
861.52	10.74
861.69	20.18
861.859	26.1
862.029	35.91
862.198	5.55
862.368	21.29
862.538	7.96
862.707	30.92
862.877	15.74
863.046	51.65
863.216	8.33
863.385	27.77
863.555	10.92
863.724	54.06
863.893	5
864.063	61.65
864.232	66.28
864.402	-19.99
864.571	8.52
864.74	15.74
864.91	-9.63
865.079	16.11
865.248	22.4
865.418	29.06
865.587	26.66
865.756	26.29
865.925	30.18
866.094	71.09
866.264	38.69
866.433	-2.41
866.602	43.69
866.771	12.96
866.94	19.62
867.109	5.74
867.278	10
867.448	5.74
867.617	-10.18
867.786	25.92
867.955	-2.96
868.124	5.37
868.293	25.73
868.462	9.07
868.631	45.17
868.8	65.72
868.969	16.29
869.137	40.91
869.306	17.22
869.475	44.99
869.644	-18.51
869.813	3.7
869.982	7.22
870.151	-11.85
870.319	7.03
870.488	30.55
870.657	40.54
870.826	15.74
870.995	6.29
871.163	2.04
871.332	14.81
871.501	22.96
871.669	13.88
871.838	42.95
872.007	29.44
872.175	10.18
872.344	-8.33
872.512	-24.44
872.681	12.03
872.85	28.32
873.018	1.48
873.187	-2.78
873.355	20.92
873.524	9.81
873.692	18.88
873.861	52.58
874.029	1.48
874.197	35.54
874.366	30.55
874.534	10.92
874.703	23.51
874.871	21.84
875.039	-9.07
875.208	5.55
875.376	33.32
875.544	34.06
875.713	15.37
875.881	29.99
876.049	35.73
876.217	40.54
876.386	6.66
876.554	24.07
876.722	24.44
876.89	58.87
877.058	11.48
877.226	31.29
877.395	13.51
877.563	21.29
877.731	11.66
877.899	24.81
878.067	32.77
878.235	7.96
878.403	9.07
878.571	17.22
878.739	4.81
878.907	47.95
879.075	3.33
879.243	-12.77
879.411	-12.03
879.579	8.15
879.747	34.99
879.914	2.22
880.082	4.07
880.25	2.04
880.418	12.03
880.586	-8.15
880.754	39.62
880.921	52.76
881.089	11.66
881.257	23.51
881.425	7.78
881.592	40.54
881.76	27.4
881.928	52.21
882.095	7.22
882.263	44.43
882.431	31.66
882.598	70.35
882.766	-0.19
882.933	15.74
883.101	14.07
883.269	11.48
883.436	22.22
883.604	20.18
883.771	42.95
883.939	-1.85
884.106	-12.77
884.273	7.03
884.441	-3.52
884.608	13.7
884.776	26.1
884.943	64.98
885.11	6.11
885.278	-7.41
885.445	17.96
885.613	22.96
885.78	-2.22
885.947	15.92
886.114	35.73
886.282	52.02
886.449	5.74
886.616	41.1
886.783	-2.96
886.951	36.47
887.118	-11.66
887.285	27.21
887.452	1.48
887.619	28.14
887.786	-8.89
887.953	24.44
888.12	26.84
888.287	36.1
888.455	21.29
888.622	37.03
888.789	15
888.956	31.66
889.123	1.11
889.29	13.51
889.456	10.74
889.623	-0.19
889.79	8.33
889.957	32.77
890.124	15
890.291	32.03
890.458	-2.78
890.625	28.14
890.791	31.66
890.958	14.62
891.125	37.58
891.292	33.14
891.459	-1.67
891.625	21.1
891.792	5.74
891.959	-6.85
892.125	-0.93
892.292	17.22
892.459	10
892.625	32.58
892.792	26.66
892.959	-15.55
893.125	60.17
893.292	-6.85
893.458	24.44
893.625	22.4
893.791	12.96
893.958	25.18
894.124	27.03
894.291	-3.52
894.457	26.66
894.624	21.47
894.79	21.66
894.957	21.47
895.123	21.1
895.289	18.33
895.456	35.54
895.622	-3.33
895.788	-0.56
895.955	7.41
896.121	39.8
896.287	104.6
896.454	19.07
896.62	11.48
896.786	6.85
896.952	29.06
897.119	16.29
897.285	22.22
897.451	-7.96
897.617	40.36
897.783	23.14
897.949	-6.48
898.115	10.37
898.281	10
898.448	27.03
898.614	10
898.78	4.07
898.946	37.77
899.112	49.61
899.278	-10.74
899.444	-4.44
899.61	42.21
899.775	4.63
899.941	13.33
900.107	5.74
900.273	32.4
900.439	28.14
900.605	29.99
900.771	22.96
900.937	29.44
901.102	42.95
901.268	29.62
901.434	-7.22
901.6	29.99
901.766	11.48
901.931	49.43
902.097	25.36
902.263	59.98
902.428	33.32
902.594	-2.59
902.76	2.59
902.925	18.14
903.091	18.51
903.256	34.43
903.422	53.13
903.588	-3.33
903.753	-9.44
903.919	23.7
904.084	35.54
904.25	36.84
904.415	42.76
904.581	20.55
904.746	50.72
904.912	45.91
905.077	18.88
905.242	14.81
905.408	-9.26
905.573	25.92
905.738	-2.04
905.904	186.24
906.069	186.24
