Data from FLMT087451__9__13-53-25-511.txt Node

Date: Tue Jun 04 13:53:25 JST 2024
User: power
Spectrometer: FLMT08745
Trigger mode: 0
Integration Time (sec): 8.000000E-3
Scans to average: 11
Electric dark correction enabled: true
Nonlinearity correction enabled: false
Boxcar width: 0
XAxis mode: Wavelengths
Number of Pixels in Spectrum: 3648
>>>>>Begin Spectral Data<<<<<
194.923	2.76
195.148	2.76
195.372	2.76
195.597	-29.08
195.821	-22.6
196.046	-7.42
196.271	7.94
196.495	-6.31
196.72	12.2
196.944	-10.57
197.169	-10.38
197.393	-6.12
197.618	23.13
197.842	14.98
198.067	-16.68
198.291	-10.57
198.516	9.8
198.74	-1.31
198.964	18.87
199.189	-13.53
199.413	7.76
199.637	-2.24
199.862	20.53
200.086	5.54
200.31	31.46
200.535	-8.9
200.759	21.64
200.983	-4.09
201.207	22.01
201.432	12.02
201.656	27.94
201.88	6.46
202.104	14.98
202.328	17.76
202.552	16.46
202.777	-1.13
203.001	26.64
203.225	2.02
203.449	15.72
203.673	25.9
203.897	2.95
204.121	2.76
204.345	26.64
204.569	4.24
204.793	40.16
205.017	-1.68
205.241	23.13
205.465	4.8
205.689	16.28
205.912	4.61
206.136	15.54
206.36	4.61
206.584	25.9
206.808	3.87
207.032	-1.68
207.255	-2.24
207.479	0.54
207.703	11.83
207.927	27.2
208.15	-16.49
208.374	5.54
208.598	4.24
208.822	15.91
209.045	18.68
209.269	-1.68
209.492	12.57
209.716	9.06
209.94	-1.87
210.163	29.42
210.387	-2.24
210.61	11.83
210.834	9.43
211.057	5.72
211.281	-1.87
211.504	15.91
211.728	2.58
211.951	33.86
212.175	8.69
212.398	-0.57
212.622	-0.02
212.845	25.16
213.068	9.43
213.292	28.68
213.515	-7.61
213.738	19.24
213.962	-5.2
214.185	11.28
214.408	22.38
214.631	26.83
214.855	18.13
215.078	14.05
215.301	28.49
215.524	15.35
215.747	3.87
215.971	27.01
216.194	14.98
216.417	29.97
216.64	2.21
216.863	32.2
217.086	7.02
217.309	2.58
217.532	17.76
217.755	32.57
217.978	-1.68
218.201	25.16
218.424	17.02
218.647	20.72
218.87	-0.39
219.093	28.31
219.316	13.31
219.539	7.02
219.762	-0.02
219.985	6.65
220.207	-11.86
220.43	9.61
220.653	27.38
220.876	36.82
221.099	-0.2
221.321	21.46
221.544	-2.05
221.767	21.46
221.99	-15.75
222.212	21.27
222.435	20.53
222.658	33.12
222.88	-13.71
223.103	47.56
223.326	13.13
223.548	27.75
223.771	10.91
223.993	-0.02
224.216	-22.05
224.438	40.9
224.661	10.72
224.883	14.24
225.106	7.94
225.328	31.27
225.551	9.06
225.773	18.5
225.996	7.76
226.218	3.87
226.44	-0.57
226.663	19.61
226.885	6.65
227.108	17.57
227.33	-1.13
227.552	40.53
227.774	13.68
227.997	30.16
228.219	-0.2
228.441	44.97
228.663	-5.75
228.886	37.38
229.108	-4.09
229.33	34.97
229.552	5.35
229.774	14.24
229.996	2.76
230.219	12.94
230.441	15.72
230.663	14.05
230.885	-0.76
231.107	25.72
231.329	14.05
231.551	16.83
231.773	9.61
231.995	14.24
232.217	-0.57
232.439	14.79
232.661	13.31
232.883	25.53
233.105	9.8
233.326	13.68
233.548	-2.42
233.77	1.1
233.992	17.02
234.214	15.72
234.436	0.35
234.657	28.49
234.879	-4.27
235.101	17.76
235.323	32.38
235.544	20.72
235.766	22.38
235.988	10.17
236.21	19.42
236.431	25.16
236.653	19.61
236.874	35.9
237.096	13.5
237.318	15.72
237.539	9.24
237.761	4.06
237.982	24.42
238.204	30.53
238.425	-15.94
238.647	22.57
238.868	-7.98
239.09	30.16
239.311	2.02
239.533	0.91
239.754	12.76
239.975	14.61
240.197	2.21
240.418	30.72
240.64	-11.12
240.861	28.31
241.082	15.54
241.304	19.24
241.525	1.84
241.746	24.42
241.967	16.28
242.189	13.31
242.41	16.46
242.631	23.31
242.852	5.17
243.073	27.38
243.294	13.5
243.516	26.46
243.737	9.06
243.958	4.06
244.179	14.79
244.4	32.01
244.621	15.35
244.842	9.8
245.063	12.94
245.284	32.94
245.505	-10.38
245.726	26.64
245.947	-16.86
246.168	4.98
246.389	8.13
246.61	15.72
246.831	20.9
247.052	7.2
247.272	-1.87
247.493	15.72
247.714	0.17
247.935	28.49
248.156	8.87
248.376	40.71
248.597	14.42
248.818	12.2
249.039	15.16
249.259	12.76
249.48	8.13
249.701	28.12
249.921	-3.35
250.142	27.01
250.363	19.98
250.583	50.15
250.804	40.71
251.025	5.91
251.245	27.94
251.466	12.02
251.686	19.42
251.907	27.75
252.127	7.76
252.348	28.68
252.568	3.5
252.789	9.8
253.009	7.02
253.23	26.64
253.45	20.53
253.67	28.68
253.891	25.35
254.111	19.61
254.331	8.69
254.552	16.83
254.772	-13.71
254.992	21.64
255.213	7.2
255.433	31.09
255.653	0.17
255.873	12.02
256.093	-8.35
256.314	30.72
256.534	19.24
256.754	25.53
256.974	12.94
257.194	22.76
257.414	4.06
257.634	28.12
257.855	25.9
258.075	39.6
258.295	11.65
258.515	18.5
258.735	8.13
258.955	51.82
259.175	0.54
259.395	5.35
259.615	3.13
259.835	5.72
260.054	-12.79
260.274	33.86
260.494	0.17
260.714	20.16
260.934	17.76
261.154	21.83
261.374	18.5
261.593	32.94
261.813	17.94
262.033	25.16
262.253	-0.94
262.472	23.5
262.692	-11.49
262.912	33.86
263.132	23.31
263.351	-7.24
263.571	18.68
263.791	24.79
264.01	13.31
264.23	41.08
264.449	7.02
264.669	38.68
264.888	37.57
265.108	25.72
265.328	14.61
265.547	13.87
265.767	20.72
265.986	11.83
266.205	18.5
266.425	4.98
266.644	36.27
266.864	14.98
267.083	35.9
267.303	24.61
267.522	33.12
267.741	28.31
267.961	19.61
268.18	14.42
268.399	11.28
268.618	29.05
268.838	9.98
269.057	23.68
269.276	11.65
269.495	29.23
269.715	26.64
269.934	12.2
270.153	27.94
270.372	27.94
270.591	14.05
270.81	15.54
271.029	21.46
271.249	25.53
271.468	10.54
271.687	30.72
271.906	32.2
272.125	17.39
272.344	12.39
272.563	11.83
272.782	4.8
273.001	14.79
273.22	17.2
273.439	19.98
273.657	-6.87
273.876	25.9
274.095	2.02
274.314	51.26
274.533	9.06
274.752	7.76
274.971	19.24
275.189	34.05
275.408	23.87
275.627	45.9
275.846	-7.05
276.064	26.83
276.283	15.54
276.502	24.98
276.72	-0.2
276.939	8.13
277.158	-2.61
277.376	21.64
277.595	13.87
277.814	16.65
278.032	2.21
278.251	43.86
278.469	11.09
278.688	17.39
278.906	-10.75
279.125	16.46
279.343	12.57
279.562	26.27
279.78	-4.09
279.999	51.82
280.217	9.98
280.435	40.9
280.654	12.02
280.872	0.91
281.091	30.53
281.309	9.24
281.527	-5.38
281.746	-2.79
281.964	9.24
282.182	36.08
282.4	6.65
282.619	46.08
282.837	24.79
283.055	32.01
283.273	3.87
283.491	28.31
283.71	19.24
283.928	18.87
284.146	-10.2
284.364	27.94
284.582	8.13
284.8	10.17
285.018	17.94
285.236	15.54
285.454	-8.53
285.672	9.61
285.89	14.61
286.108	19.24
286.326	2.02
286.544	29.05
286.762	14.98
286.98	42.38
287.198	22.94
287.416	44.04
287.634	2.95
287.851	32.57
288.069	-1.68
288.287	4.06
288.505	4.43
288.723	31.46
288.94	-6.87
289.158	26.27
289.376	22.76
289.594	9.8
289.811	19.05
290.029	31.27
290.247	8.5
290.464	22.57
290.682	-7.05
290.9	36.08
291.117	1.1
291.335	9.43
291.552	1.84
291.77	42.75
291.987	-4.09
292.205	40.34
292.422	9.24
292.64	12.76
292.857	12.94
293.075	16.09
293.292	19.05
293.51	27.01
293.727	41.08
293.945	27.94
294.162	12.57
294.379	50.52
294.597	24.42
294.814	12.39
295.031	15.16
295.249	8.13
295.466	-1.13
295.683	28.86
295.9	23.13
296.118	33.68
296.335	11.09
296.552	19.61
296.769	-12.23
296.986	26.09
297.204	13.68
297.421	25.9
297.638	10.54
297.855	32.2
298.072	14.61
298.289	40.9
298.506	8.13
298.723	20.9
298.94	32.38
299.157	34.79
299.374	3.32
299.591	34.42
299.808	-2.98
300.025	4.61
300.242	9.61
300.459	45.34
300.676	4.8
300.893	43.12
301.109	25.35
301.326	58.85
301.543	17.94
301.76	18.5
301.977	9.43
302.193	18.31
302.41	10.54
302.627	26.83
302.844	5.54
303.06	16.46
303.277	11.28
303.494	17.94
303.71	1.28
303.927	22.38
304.144	5.54
304.36	37.38
304.577	-7.61
304.793	28.86
305.01	-10.94
305.227	18.87
305.443	-1.87
305.66	34.79
305.876	7.57
306.093	22.76
306.309	19.79
306.526	8.87
306.742	10.72
306.958	43.12
307.175	21.09
307.391	20.53
307.608	-10.75
307.824	6.09
308.04	3.13
308.257	26.64
308.473	19.42
308.689	9.8
308.905	20.72
309.122	27.01
309.338	10.17
309.554	23.5
309.77	-10.01
309.986	9.98
310.203	10.17
310.419	16.65
310.635	8.13
310.851	29.6
311.067	9.98
311.283	26.27
311.499	-0.02
311.715	29.79
311.931	7.57
312.147	14.79
312.363	-8.16
312.579	13.68
312.795	9.8
313.011	10.17
313.227	-0.2
313.443	-8.72
313.659	7.57
313.875	22.2
314.091	12.39
314.307	36.64
314.523	3.87
314.738	24.05
314.954	8.69
315.17	18.68
315.386	-8.72
315.602	1.1
315.817	19.42
316.033	12.76
316.249	6.83
316.465	53.3
316.68	-6.68
316.896	11.65
317.112	-9.64
317.327	27.01
317.543	23.68
317.758	4.43
317.974	22.2
318.19	28.68
318.405	6.09
318.621	14.79
318.836	12.39
319.052	24.05
319.267	42.56
319.483	6.65
319.698	-5.57
319.914	6.83
320.129	4.06
320.344	33.31
320.56	14.61
320.775	28.68
320.99	23.31
321.206	33.31
321.421	20.72
321.636	24.98
321.852	6.09
322.067	32.01
322.282	7.39
322.498	26.83
322.713	27.2
322.928	42.56
323.143	11.83
323.358	24.24
323.574	3.13
323.789	31.46
324.004	-3.9
324.219	26.27
324.434	10.54
324.649	22.2
324.864	24.61
325.079	6.46
325.294	-8.35
325.509	19.61
325.724	12.39
325.939	9.98
326.154	10.35
326.369	46.27
326.584	21.46
326.799	-12.97
327.014	17.39
327.229	32.75
327.444	-9.83
327.659	23.5
327.873	13.68
328.088	17.94
328.303	4.8
328.518	23.5
328.733	-10.94
328.947	21.46
329.162	17.39
329.377	29.23
329.591	17.02
329.806	32.38
330.021	7.02
330.235	14.79
330.45	12.76
330.665	25.53
330.879	-11.31
331.094	29.97
331.309	11.65
331.523	40.9
331.738	2.39
331.952	27.38
332.167	8.13
332.381	10.72
332.596	21.83
332.81	33.12
333.025	55.52
333.239	45.9
333.453	82.74
333.668	73.85
333.882	100.32
334.097	110.69
334.311	71.63
334.525	54.04
334.74	44.6
334.954	38.31
335.168	40.16
335.382	29.79
335.597	13.31
335.811	27.38
336.025	4.43
336.239	10.54
336.453	-2.24
336.668	22.57
336.882	25.9
337.096	29.97
337.31	25.35
337.524	43.67
337.738	26.83
337.952	76.44
338.166	123.09
338.38	163.64
338.594	184.93
338.808	183.63
339.022	125.69
339.236	151.23
339.45	102.91
339.664	59.78
339.878	42.19
340.092	42.01
340.306	6.28
340.52	36.27
340.734	60.34
340.948	137.72
341.161	208.99
341.375	320.07
341.589	371.35
341.803	439.29
342.017	410.59
342.23	365.98
342.444	355.8
342.658	345.99
342.871	322.47
343.085	385.79
343.299	401.52
343.512	481.31
343.726	502.79
343.94	540.37
344.153	499.64
344.367	451.51
344.58	310.63
344.794	218.06
345.008	155.12
345.221	131.24
345.435	31.46
345.648	62.37
345.862	58.48
346.075	71.07
346.288	121.24
346.502	160.49
346.715	164.38
346.929	179.93
347.142	166.23
347.355	122.54
347.569	111.8
347.782	160.86
347.995	153.82
348.209	229.73
348.422	269.71
348.635	325.99
348.848	324.7
349.062	352.83
349.275	313.22
349.488	262.86
349.701	166.97
349.914	133.65
350.128	92.36
350.341	86.99
350.554	36.64
350.767	36.08
350.98	6.09
351.193	44.79
351.406	-5.38
351.619	25.53
351.832	22.57
352.045	6.83
352.258	9.43
352.471	18.87
352.684	-12.23
352.897	22.57
353.11	0.54
353.323	34.97
353.536	-2.98
353.748	39.23
353.961	12.57
354.174	16.46
354.387	-3.16
354.6	19.42
354.813	13.31
355.025	38.68
355.238	32.38
355.451	69.78
355.664	131.79
355.876	176.78
356.089	243.06
356.302	294.34
356.514	237.87
356.727	231.58
356.94	195.11
357.152	138.27
357.365	99.58
357.577	90.33
357.79	50.71
358.002	48.49
358.215	40.16
358.427	24.79
358.64	11.46
358.852	24.79
359.065	14.79
359.277	14.42
359.49	2.21
359.702	39.79
359.915	36.45
360.127	40.34
360.339	46.27
360.552	69.04
360.764	37.94
360.976	36.08
361.189	28.68
361.401	36.08
361.613	16.46
361.825	16.83
362.038	13.31
362.25	16.46
362.462	-10.01
362.674	-9.09
362.886	-8.16
363.099	33.12
363.311	-4.27
363.523	29.6
363.735	2.76
363.947	23.5
364.159	22.38
364.371	23.68
364.583	9.61
364.795	56.08
365.007	40.34
365.219	69.78
365.431	70.33
365.643	65.89
365.855	43.86
366.067	60.52
366.279	38.68
366.491	50.89
366.703	44.41
366.914	56.45
367.126	42.56
367.338	59.97
367.55	30.72
367.762	34.79
367.974	21.64
368.185	47.93
368.397	3.13
368.609	28.31
368.82	6.28
369.032	20.35
369.244	9.98
369.456	33.49
369.667	-9.09
369.879	26.27
370.09	18.5
370.302	-0.94
370.514	10.54
370.725	11.46
370.937	12.57
371.148	34.97
371.36	16.65
371.571	-7.61
371.783	4.8
371.994	20.9
372.206	2.95
372.417	23.87
372.629	1.84
372.84	19.61
373.051	8.87
373.263	32.75
373.474	24.05
373.685	38.86
373.897	2.21
374.108	10.72
374.319	-0.02
374.531	27.94
374.742	2.95
374.953	20.9
375.164	19.24
375.375	19.05
375.587	11.09
375.798	26.83
376.009	6.46
376.22	32.2
376.431	27.75
376.642	36.64
376.853	6.65
377.065	46.27
377.276	6.28
377.487	7.94
377.698	6.65
377.909	34.05
378.12	12.39
378.331	3.87
378.542	14.79
378.753	27.94
378.964	7.57
379.174	48.49
379.385	20.16
379.596	37.38
379.807	7.02
380.018	17.02
380.229	12.2
380.44	29.6
380.65	16.46
380.861	17.57
381.072	27.01
381.283	24.42
381.493	12.76
381.704	20.16
381.915	3.13
382.126	32.94
382.336	11.65
382.547	34.23
382.757	8.32
382.968	-8.53
383.179	13.5
383.389	20.16
383.6	-12.42
383.81	26.83
384.021	6.83
384.231	8.5
384.442	-7.98
384.652	-3.72
384.863	-19.82
385.073	20.16
385.284	-1.13
385.494	6.65
385.705	15.35
385.915	18.5
386.125	10.17
386.336	21.83
386.546	-10.01
386.756	33.68
386.967	-5.38
387.177	37.57
387.387	12.94
387.598	20.72
387.808	-6.12
388.018	19.79
388.228	-16.68
388.439	30.53
388.649	0.17
388.859	2.95
389.069	25.72
389.279	25.16
389.489	-8.9
389.699	28.31
389.909	13.13
390.12	12.94
390.33	12.39
390.54	29.79
390.75	-3.35
390.96	-2.24
391.17	14.98
391.38	9.24
391.59	2.95
391.799	0.35
392.009	-9.83
392.219	30.35
392.429	24.24
392.639	17.76
392.849	16.09
393.059	8.69
393.269	29.42
393.478	21.64
393.688	-0.2
393.898	6.28
394.108	20.9
394.317	25.35
394.527	2.58
394.737	24.24
394.947	10.17
395.156	18.68
395.366	-3.16
395.576	14.05
395.785	12.02
395.995	7.2
396.204	24.24
396.414	-2.24
396.624	10.72
396.833	19.42
397.043	9.24
397.252	22.57
397.462	5.54
397.671	16.09
397.881	-12.97
398.09	19.42
398.299	14.61
398.509	9.24
398.718	11.65
398.928	11.28
399.137	-0.2
399.346	20.53
399.556	-2.79
399.765	14.42
399.974	14.61
400.184	8.87
400.393	8.32
400.602	-2.42
400.811	-1.13
401.021	6.65
401.23	-4.46
401.439	16.09
401.648	20.16
401.857	28.31
402.066	2.95
402.276	1.47
402.485	13.5
402.694	20.72
402.903	13.87
403.112	15.72
403.321	7.94
403.53	20.53
403.739	0.35
403.948	39.42
404.157	14.61
404.366	27.75
404.575	-4.64
404.784	9.61
404.993	-4.46
405.202	7.57
405.411	36.08
405.619	43.67
405.828	1.84
406.037	16.65
406.246	1.47
406.455	48.12
406.663	-2.61
406.872	3.69
407.081	12.02
407.29	27.94
407.498	7.76
407.707	27.94
407.916	27.75
408.124	20.53
408.333	5.17
408.542	24.98
408.75	-4.64
408.959	-2.42
409.168	-1.68
409.376	15.16
409.585	0.54
409.793	4.24
410.002	-13.71
410.21	28.31
410.419	4.43
410.627	10.72
410.836	30.53
411.044	15.35
411.253	-7.24
411.461	6.83
411.669	2.95
411.878	15.16
412.086	-4.64
412.294	12.39
412.503	7.39
412.711	-0.02
412.919	11.09
413.128	16.65
413.336	27.57
413.544	38.12
413.752	3.5
413.961	2.21
414.169	-15.38
414.377	24.24
414.585	4.61
414.793	24.24
415.001	-3.72
415.209	7.57
415.418	2.02
415.626	-2.98
415.834	28.86
416.042	11.65
416.25	-2.24
416.458	27.01
416.666	-0.94
416.874	22.57
417.082	7.2
417.29	12.57
417.498	11.83
417.706	8.69
417.913	10.35
418.121	16.09
418.329	17.02
418.537	13.68
418.745	22.57
418.953	-4.27
419.161	-10.38
419.368	37.19
419.576	-5.94
419.784	24.24
419.992	14.98
420.199	22.76
420.407	1.84
420.615	4.61
420.822	14.61
421.03	16.83
421.238	8.69
421.445	7.94
421.653	-11.49
421.861	13.68
422.068	0.54
422.276	13.87
422.483	7.57
422.691	8.5
422.898	8.13
423.106	13.5
423.313	-0.39
423.521	27.01
423.728	-9.83
423.936	18.87
424.143	13.68
424.35	37.75
424.558	18.68
424.765	39.6
424.973	9.24
425.18	18.31
425.387	-3.9
425.594	-6.31
425.802	17.57
426.009	11.65
426.216	-2.24
426.424	28.12
426.631	-2.05
426.838	5.17
427.045	6.65
427.252	14.79
427.459	15.16
427.667	20.53
427.874	10.17
428.081	34.6
428.288	-19.82
428.495	8.69
428.702	12.76
428.909	21.09
429.116	-5.57
429.323	21.27
429.53	-10.94
429.737	38.68
429.944	-18.53
430.151	1.28
430.358	13.13
430.565	15.35
430.772	0.54
430.979	27.38
431.185	4.98
431.392	19.79
431.599	13.87
431.806	1.47
432.013	1.65
432.219	5.54
432.426	4.8
432.633	5.91
432.84	6.09
433.046	22.76
433.253	-13.53
433.46	24.42
433.666	7.39
433.873	9.8
434.08	16.28
434.286	7.39
434.493	11.46
434.7	32.01
434.906	8.69
435.113	37.75
435.319	-0.94
435.526	19.61
435.732	-2.05
435.939	34.6
436.145	-3.35
436.352	9.98
436.558	-13.16
436.765	34.42
436.971	24.61
437.177	23.68
437.384	3.69
437.59	24.42
437.796	1.1
438.003	18.87
438.209	-3.35
438.415	28.68
438.622	7.94
438.828	17.94
439.034	1.47
439.24	9.24
439.447	22.2
439.653	33.12
439.859	-10.2
440.065	14.42
440.271	10.35
440.477	23.13
440.683	12.39
440.89	15.54
441.096	-2.79
441.302	14.24
441.508	4.8
441.714	13.68
441.92	3.13
442.126	23.68
442.332	0.17
442.538	46.08
442.744	2.76
442.95	27.75
443.156	22.57
443.361	-6.68
443.567	-0.02
443.773	17.76
443.979	6.65
444.185	29.23
444.391	-12.6
444.596	13.87
444.802	17.39
445.008	38.31
445.214	7.39
445.42	32.75
445.625	17.57
445.831	17.2
446.037	19.79
446.242	23.68
446.448	-15.01
446.654	14.61
446.859	10.35
447.065	33.12
447.27	18.87
447.476	11.46
447.682	-14.46
447.887	14.05
448.093	15.72
448.298	22.76
448.504	14.61
448.709	29.42
448.915	-0.57
449.12	12.94
449.325	0.17
449.531	-17.05
449.736	-15.57
449.942	9.24
450.147	2.02
450.352	37.75
450.558	27.2
450.763	16.28
450.968	18.31
451.174	28.68
451.379	13.87
451.584	26.09
451.789	9.98
451.995	28.31
452.2	16.65
452.405	7.94
452.61	5.91
452.815	18.13
453.02	-7.79
453.226	-5.38
453.431	4.98
453.636	-10.01
453.841	15.35
454.046	22.2
454.251	11.28
454.456	23.31
454.661	7.39
454.866	10.54
455.071	3.69
455.276	18.5
455.481	11.83
455.686	24.98
455.891	-23.34
456.095	28.68
456.3	-0.76
456.505	6.09
456.71	-13.34
456.915	17.39
457.12	5.91
457.324	29.79
457.529	-1.13
457.734	16.65
457.939	5.54
458.144	4.98
458.348	-0.2
458.553	19.61
458.758	15.16
458.962	-17.05
459.167	-7.98
459.372	19.05
459.576	0.91
459.781	-2.42
459.985	-2.24
460.19	18.13
460.394	-7.61
460.599	6.65
460.803	-12.23
461.008	8.5
461.212	17.39
461.417	23.13
461.621	11.09
461.826	4.8
462.03	-6.87
462.235	16.83
462.439	11.83
462.643	27.01
462.848	7.02
463.052	-2.42
463.256	21.83
463.461	7.76
463.665	4.43
463.869	30.72
464.074	8.5
464.278	6.83
464.482	-0.76
464.686	2.58
464.89	16.09
465.095	27.57
465.299	9.43
465.503	22.2
465.707	13.5
465.911	19.61
466.115	5.35
466.319	9.8
466.523	13.13
466.727	35.9
466.931	6.09
467.135	23.68
467.339	39.97
467.543	52.56
467.747	46.45
467.951	49.41
468.155	29.97
468.359	45.71
468.563	27.94
468.767	29.6
468.971	30.53
469.175	33.86
469.379	21.27
469.582	28.86
469.786	12.94
469.99	25.9
470.194	-5.01
470.397	-1.5
470.601	-22.97
470.805	32.01
471.009	13.31
471.212	15.91
471.416	19.05
471.62	29.23
471.823	-2.79
472.027	17.76
472.23	7.02
472.434	19.61
472.638	27.57
472.841	18.31
473.045	11.28
473.248	16.46
473.452	12.02
473.655	-15.38
473.859	5.91
474.062	24.05
474.266	5.17
474.469	33.31
474.672	5.54
474.876	-5.38
475.079	-4.64
475.283	21.64
475.486	10.91
475.689	29.42
475.893	22.76
476.096	6.83
476.299	-0.02
476.502	24.05
476.706	-12.42
476.909	12.94
477.112	25.9
477.315	9.24
477.519	3.69
477.722	16.83
477.925	-10.2
478.128	12.76
478.331	-2.24
478.534	20.35
478.737	8.13
478.94	4.61
479.143	13.5
479.346	10.35
479.549	1.47
479.752	17.02
479.955	19.42
480.158	33.86
480.361	2.39
480.564	2.39
480.767	-13.34
480.97	18.13
481.173	5.72
481.376	29.42
481.579	31.27
481.782	15.54
481.984	13.87
482.187	28.49
482.39	-9.27
482.593	32.2
482.796	10.72
482.998	11.83
483.201	-5.2
483.404	35.53
483.606	0.73
483.809	48.67
484.012	0.73
484.214	12.94
484.417	-14.46
484.62	34.79
484.822	-7.79
485.025	17.2
485.227	9.61
485.43	31.46
485.632	2.39
485.835	50.71
486.037	0.73
486.24	17.76
486.442	18.31
486.645	25.53
486.847	16.83
487.05	0.35
487.252	14.98
487.455	15.35
487.657	-15.38
487.859	20.9
488.062	22.01
488.264	-1.87
488.466	14.98
488.668	2.39
488.871	8.13
489.073	33.86
489.275	-5.75
489.477	7.02
489.68	17.57
489.882	28.31
490.084	3.87
490.286	41.64
490.488	-12.05
490.69	22.94
490.893	-0.76
491.095	34.6
491.297	2.21
491.499	9.24
491.701	-17.79
491.903	28.68
492.105	1.1
492.307	47.93
492.509	12.39
492.711	19.24
492.913	31.27
493.115	20.16
493.317	-5.75
493.518	27.57
493.72	21.64
493.922	13.5
494.124	-7.98
494.326	11.28
494.528	-10.01
494.73	23.13
494.931	-2.42
495.133	7.39
495.335	12.2
495.537	-8.35
495.738	0.91
495.94	45.34
496.142	4.43
496.343	12.94
496.545	-3.9
496.747	18.13
496.948	2.76
497.15	5.72
497.351	9.8
497.553	22.76
497.755	45.53
497.956	30.53
498.158	-2.42
498.359	12.39
498.561	26.83
498.762	13.13
498.964	16.28
499.165	33.49
499.366	-0.57
499.568	36.82
499.769	32.94
499.971	26.09
500.172	49.97
500.373	96.99
500.575	80.7
500.776	88.1
500.977	86.81
501.178	97.18
501.38	53.67
501.581	64.59
501.782	33.31
501.983	43.86
502.185	27.75
502.386	33.86
502.587	10.54
502.788	4.06
502.989	22.38
503.19	31.64
503.391	15.91
503.593	35.34
503.794	-27.23
503.995	54.04
504.196	32.2
504.397	59.78
504.598	45.53
504.799	40.16
505	57.74
505.201	82
505.402	62.19
505.602	38.49
505.803	48.3
506.004	35.71
506.205	29.23
506.406	42.19
506.607	15.54
506.808	7.02
507.008	16.46
507.209	35.34
507.41	1.65
507.611	36.08
507.812	30.16
508.012	48.67
508.213	94.95
508.414	132.35
508.614	122.17
508.815	150.12
509.016	127.91
509.216	118.1
509.417	74.78
509.617	81.81
509.818	71.81
510.019	51.63
510.219	35.34
510.42	31.09
510.62	30.9
510.821	44.41
511.021	34.42
511.222	54.23
511.422	54.04
511.623	64.04
511.823	64.41
512.023	58.67
512.224	35.71
512.424	46.82
512.624	48.67
512.825	52.75
513.025	37.01
513.225	34.97
513.426	19.42
513.626	39.42
513.826	15.54
514.026	8.13
514.227	-12.05
514.427	30.72
514.627	-1.87
514.827	-3.9
515.027	28.68
515.228	23.31
515.428	27.94
515.628	63.85
515.828	37.19
516.028	62.37
516.228	41.82
516.428	62.19
516.628	42.19
516.828	45.9
517.028	66.44
517.228	61.63
517.428	30.35
517.628	82.74
517.828	60.52
518.028	71.07
518.228	42.19
518.428	37.38
518.627	17.57
518.827	37.19
519.027	34.97
519.227	24.61
519.427	30.35
519.626	53.86
519.826	12.02
520.026	27.2
520.226	8.13
520.425	16.09
520.625	18.5
520.825	22.2
521.024	14.05
521.224	12.02
521.424	13.31
521.623	5.17
521.823	-14.64
522.023	1.65
522.222	16.46
522.422	44.97
522.621	-13.34
522.821	14.42
523.02	15.91
523.22	18.13
523.419	-2.61
523.619	14.61
523.818	7.02
524.017	0.54
524.217	9.8
524.416	3.32
524.616	14.42
524.815	13.13
525.014	17.76
525.214	23.87
525.413	1.1
525.612	43.3
525.812	16.09
526.011	20.53
526.21	2.02
526.409	17.39
526.608	30.35
526.808	43.86
527.007	48.86
527.206	20.35
527.405	-1.13
527.604	43.12
527.803	27.57
528.003	34.79
528.202	32.75
528.401	25.16
528.6	11.28
528.799	30.53
528.998	22.57
529.197	44.23
529.396	112.36
529.595	168.45
529.794	194
529.993	257.12
530.192	243.8
530.39	294.34
530.589	306.92
530.788	368.02
530.987	370.98
531.186	395.6
531.385	349.69
531.583	302.3
531.782	251.39
531.981	201.77
532.18	169.93
532.379	154.56
532.577	124.94
532.776	111.06
532.975	78.85
533.173	87.55
533.372	53.86
533.571	57.56
533.769	10.54
533.968	76.81
534.166	53.67
534.365	42.75
534.564	19.98
534.762	28.68
534.961	20.35
535.159	34.79
535.358	3.5
535.556	0.35
535.755	19.61
535.953	37.75
536.151	100.69
536.35	317.66
536.548	551.29
536.747	751.6
536.945	826.39
537.143	909.88
537.342	819.72
537.54	635.89
537.738	504.27
537.937	455.39
538.135	373.75
538.333	339.32
538.531	255.83
538.73	219.73
538.928	145.49
539.126	124.76
539.324	78.85
539.522	74.59
539.72	51.63
539.919	50.52
540.117	31.27
540.315	36.64
540.513	-6.12
540.711	17.94
540.909	22.01
541.107	35.34
541.305	-18.71
541.503	48.49
541.701	29.79
541.899	50.34
542.097	38.12
542.295	21.27
542.493	14.24
542.691	20.72
542.888	17.57
543.086	22.38
543.284	-6.68
543.482	27.2
543.68	24.05
543.878	24.79
544.075	9.24
544.273	-4.83
544.471	5.35
544.669	15.16
544.866	5.72
545.064	6.83
545.262	19.24
545.459	27.57
545.657	-18.71
545.855	11.83
546.052	-6.12
546.25	11.09
546.447	11.65
546.645	34.23
546.842	-11.86
547.04	24.24
547.238	4.24
547.435	27.2
547.633	15.72
547.83	23.87
548.027	1.47
548.225	33.86
548.422	16.65
548.62	19.42
548.817	-1.87
549.014	7.57
549.212	8.87
549.409	23.13
549.606	26.46
549.804	29.79
550.001	-1.31
550.198	20.53
550.396	15.72
550.593	31.83
550.79	-4.46
550.987	2.02
551.184	9.8
551.382	17.94
551.579	-6.12
551.776	35.9
551.973	-4.64
552.17	29.42
552.367	15.16
552.564	52.75
552.761	44.79
552.958	58.85
553.155	56.26
553.353	66.26
553.55	44.79
553.746	45.16
553.943	42.38
554.14	61.45
554.337	22.76
554.534	45.71
554.731	28.31
554.928	49.97
555.125	30.72
555.322	47.19
555.519	12.57
555.715	20.35
555.912	5.35
556.109	8.5
556.306	-2.42
556.503	16.46
556.699	13.5
556.896	27.57
557.093	8.13
557.289	19.79
557.486	19.61
557.683	8.32
557.879	5.35
558.076	3.5
558.273	-4.83
558.469	44.23
558.666	-14.83
558.862	18.68
559.059	2.21
559.255	11.83
559.452	8.5
559.648	28.31
559.845	0.54
560.041	34.23
560.238	2.76
560.434	23.5
560.631	10.35
560.827	26.09
561.023	9.24
561.22	19.79
561.416	17.02
561.612	18.31
561.809	41.82
562.005	70.7
562.201	91.99
562.398	104.4
562.594	122.17
562.79	137.16
562.986	143.64
563.182	120.32
563.379	90.7
563.575	91.62
563.771	78.48
563.967	76.26
564.163	54.78
564.359	71.07
564.555	59.41
564.751	35.71
564.947	18.13
565.144	37.94
565.34	60.71
565.536	86.25
565.732	102.17
565.928	97.73
566.123	68.85
566.319	109.02
566.515	68.67
566.711	87.55
566.907	39.05
567.103	45.34
567.299	52.38
567.495	30.9
567.691	17.76
567.886	61.08
568.082	50.52
568.278	77.92
568.474	66.26
568.669	80.88
568.865	74.04
569.061	83.66
569.257	70.52
569.452	81.25
569.648	42.19
569.844	83.11
570.039	50.34
570.235	77.18
570.43	53.12
570.626	58.85
570.822	77.37
571.017	101.06
571.213	88.29
571.408	154.56
571.604	152.34
571.799	213.43
571.995	186.59
572.19	163.64
572.385	184.19
572.581	253.98
572.776	405.97
572.972	567.4
573.167	661.63
573.362	730.68
573.558	729.94
573.753	617.57
573.948	481.13
574.144	421.89
574.339	386.9
574.534	335.06
574.729	274.16
574.925	241.94
575.12	199.92
575.315	187.33
575.51	124.02
575.705	106.99
575.9	74.04
576.096	111.99
576.291	87.73
576.486	72.92
576.681	100.14
576.876	137.9
577.071	167.71
577.266	197.88
577.461	190.48
577.656	212.32
577.851	191.22
578.046	190.85
578.241	265.64
578.436	395.23
578.631	426.33
578.826	526.11
579.021	528.15
579.215	527.22
579.41	443.73
579.605	399.49
579.8	364.31
579.995	344.87
580.189	342.28
580.384	299.89
580.579	297.48
580.774	349.69
580.968	435.96
581.163	1476.92
581.358	6637.68
581.552	17829.29
581.747	28353.34
581.942	36538.32
582.136	41352.52
582.331	42285.93
582.526	38045.8
582.72	31200.21
582.915	25842.66
583.109	22341.74
583.304	19543.56
583.498	16804.99
583.693	13926.65
583.887	11247.5
584.082	9166.13
584.276	9032.84
584.471	11647.75
584.665	14973.54
584.859	17457.93
585.054	19410.64
585.248	19931.77
585.442	17972.02
585.637	14318.19
585.831	11799.37
586.025	10234.49
586.22	8786.07
586.414	7634.77
586.608	6491.43
586.802	5349.76
586.997	4307.68
587.191	3382.42
587.385	2576.2
587.579	1782.56
587.773	1340.67
587.967	938.39
588.162	749.37
588.356	662
588.55	569.43
588.744	475.57
588.938	451.14
589.132	386.71
589.326	358.76
589.52	315.07
589.714	320.99
589.908	303.41
590.102	381.71
590.296	543.7
590.49	2448.46
590.684	8648.89
590.877	17012.33
591.071	23539.32
591.265	28929.45
591.459	31595.27
591.653	30692.96
591.847	25751.95
592.04	21045.49
592.234	17699.89
592.428	15741.62
592.622	13483.27
592.815	11631.83
593.009	9511.02
593.203	7616.07
593.397	5869.22
593.59	4923.6
593.784	5107.61
593.977	5948.83
594.171	6868.53
594.365	7559.61
594.558	7842.67
594.752	7329.5
594.945	6025.47
595.139	4992.46
595.332	4224.56
595.526	3769.34
595.719	3336.33
595.913	2828.16
596.106	2330.17
596.3	1866.8
596.493	1444.71
596.687	1059.28
596.88	778.62
597.073	580.73
597.267	407.45
597.46	339.88
597.653	266.75
597.847	241.2
598.04	220.84
598.233	227.87
598.426	176.41
598.62	212.88
598.813	310.07
599.006	893.59
599.199	2710.6
599.392	4931.56
599.586	6723.95
599.779	8280.67
599.972	9160.21
600.165	8877.89
600.358	7313.76
600.551	6168.94
600.744	5173.89
600.937	4592.22
601.13	4014.44
601.323	3464.43
601.516	2850.56
601.709	2309.8
601.902	1815.15
602.095	1304.57
602.288	936.72
602.481	665.51
602.674	480.76
602.867	422.44
603.06	401.89
603.252	683.28
603.445	2406.81
603.638	7477.78
603.831	13875.37
604.024	18984.11
604.216	23023.19
604.409	25407.43
604.602	24371.46
604.795	20589.89
604.987	16914.77
605.18	14562
605.373	13100.8
605.565	13208.17
605.758	18272.48
605.951	26892.32
606.143	33771.42
606.336	39528.84
606.528	42150.6
606.721	41881.24
606.913	35984.61
607.106	29845.82
607.298	24840.39
607.491	21578.09
607.683	18899.14
607.876	16227.58
608.068	13411.44
608.261	10865.22
608.453	8227.91
608.646	6053.61
608.838	4191.24
609.03	3038.46
609.223	2401.81
609.415	2169.48
609.607	2021.75
609.8	2066.92
609.992	2108.94
610.184	3256.54
610.376	9927.93
610.569	24540.67
610.761	38610.62
610.953	45598.02
611.145	45596.72
611.337	45607.46
611.529	45581.36
611.722	45612.64
611.914	43555.89
612.106	38591.37
612.298	33325.82
612.49	30732.39
612.682	31153.93
612.874	31558.43
613.066	30874.2
613.258	29525.19
613.45	26557.25
613.642	21565.69
613.834	16915.14
614.026	13913.69
614.218	11460.77
614.41	9974.76
614.602	8509.12
614.793	7096.05
614.985	5720.38
615.177	4451.34
615.369	3264.68
615.561	2284.63
615.753	1563.93
615.944	1104.45
616.136	764
616.328	565.91
616.52	462.24
616.711	385.6
616.903	347.1
617.095	362.83
617.286	329.32
617.478	418.18
617.67	937.46
617.861	2957.37
618.053	6000.11
618.244	8579.84
618.436	10711.19
618.627	12286.62
618.819	12284.03
619.01	10828.75
619.202	9023.4
619.393	7699.01
619.585	6743.94
619.776	5953.64
619.968	5163.15
620.159	4337.86
620.351	3525.34
620.542	2729.48
620.733	1997.12
620.925	1437.12
621.116	965.05
621.307	689.02
621.499	504.08
621.69	447.43
621.881	383.01
622.072	402.26
622.264	406.34
622.455	852.86
622.646	3262.83
622.837	10305.4
623.028	18620.34
623.22	25611.81
623.411	31006.75
623.602	34438.25
623.793	33381.55
623.984	28545.5
624.175	23944.01
624.366	20567.12
624.557	18053.48
624.748	15823.27
624.939	13759.85
625.13	11053.68
625.321	8896.77
625.512	6622.87
625.703	4693.12
625.894	3063.27
626.085	1994.53
626.276	1456.74
626.467	1862.54
626.658	4090.72
626.848	6983.87
627.039	9414.2
627.23	11419.67
627.421	12638.54
627.612	12337.16
627.802	10574.94
627.993	8942.13
628.184	7664.94
628.375	6765.97
628.565	5998.99
628.756	5097.99
628.947	4365.07
629.137	3654.74
629.328	4142.37
629.519	8517.26
629.709	17563.45
629.9	25987.43
630.09	33185.31
630.281	38318.86
630.471	39894.1
630.662	36771.76
630.852	30955.66
631.043	26414.7
631.233	22933.96
631.424	20253.89
631.614	17676.19
631.805	14861.17
631.995	12023.18
632.185	9291.46
632.376	6805.77
632.566	4594.07
632.756	3012.54
632.947	1892.53
633.137	1255.14
633.327	922.28
633.518	726.97
633.708	646.44
633.898	701.61
634.088	1152.95
634.279	3943.36
634.469	11928.77
634.659	21918.36
634.849	30162.95
635.039	36973.92
635.229	40694.21
635.42	40278.79
635.61	34884.22
635.8	30172.57
635.99	27134.28
636.18	29788.07
636.37	43276.17
636.56	45600.24
636.75	45713.54
636.94	46396.65
637.13	46919.08
637.32	46585.66
637.51	45930.87
637.7	45646.89
637.89	45598.02
638.079	45602.28
638.269	45576.54
638.459	45606.72
638.649	45590.24
638.839	45608.01
639.029	45591.72
639.218	45611.53
639.408	43225.63
639.598	32380.39
639.788	19961.94
639.977	9520.28
640.167	1414.35
640.357	1015.4
640.546	738.27
640.736	579.98
640.926	509.27
641.115	450.58
641.305	406.52
641.495	381.9
641.684	315.62
641.874	327.84
642.063	285.63
642.253	251.02
642.442	266.2
642.632	250.65
642.821	227.13
643.011	254.9
643.2	234.54
643.39	230.65
643.579	225.1
643.768	201.96
643.958	198.07
644.147	246.57
644.336	219.36
644.526	261.94
644.715	221.21
644.904	259.9
645.094	263.79
645.283	265.27
645.472	275.82
645.661	293.41
645.851	296.56
646.04	345.06
646.229	396.71
646.418	931.91
646.607	3866.9
646.796	13041.38
646.986	25052.36
647.175	35083.97
647.364	42484.57
647.553	45306.07
647.742	45395.86
647.931	42698.57
648.12	37507.82
648.309	32289.49
648.498	27836.1
648.687	24655.82
648.876	21118.06
649.065	17932.78
649.254	15356.38
649.443	14607.36
649.632	14784.34
649.82	15127.56
650.009	15747.92
650.198	16508.97
650.387	15674.42
650.576	13494.75
650.765	11445.03
650.953	9929.41
651.142	8520.78
651.331	7452.6
651.52	6362.58
651.708	5294.03
651.897	4286.58
652.086	3178.23
652.274	2191.14
652.463	1410.27
652.652	856.19
652.84	562.03
653.029	401.71
653.217	321.73
653.406	262.12
653.594	258.79
653.783	220.28
653.972	206.03
654.16	214.36
654.349	214.55
654.537	177.89
654.725	227.69
654.914	171.23
655.102	178.82
655.291	214.92
655.479	250.83
655.667	496.86
655.856	1992.87
656.044	6162.28
656.232	11534.08
656.421	15991.92
656.609	20126.52
656.797	22627.94
656.986	22597.4
657.174	19632.05
657.362	17224.48
657.55	14843.95
657.738	12873.47
657.927	11121.43
658.115	9488.44
658.303	7841.37
658.491	6265.02
658.679	4623.14
658.867	3105.84
659.055	1979.54
659.243	1189.97
659.431	755.3
659.619	488.53
659.807	313.03
659.995	292.67
660.183	221.58
660.371	205.66
660.559	170.3
660.747	178.82
660.935	159.75
661.123	154.75
661.311	152.9
661.499	192.33
661.687	222.69
661.875	269.34
662.062	274.71
662.25	276.19
662.438	249.72
662.626	255.09
662.813	236.21
663.001	252.31
663.189	269.53
663.377	326.92
663.564	642
663.752	2489
663.94	8406.56
664.127	17272.25
664.315	24478.28
664.502	31184.66
664.69	35739.68
664.878	36810.45
665.065	32764.89
665.253	28480.33
665.44	24614.9
665.628	21481.09
665.815	18461.13
666.003	15733.85
666.19	12993.98
666.378	10407.77
666.565	7618.11
666.752	5217.02
666.94	3347.25
667.127	2133.56
667.315	1371.21
667.502	1351.59
667.689	2893.51
667.877	7518.32
668.064	12673.16
668.251	17503.47
668.438	20874.99
668.626	23717.6
668.813	22940.62
669	20095.79
669.187	17426.46
669.374	15045.55
669.562	12953.26
669.749	11223.25
669.936	9366.25
670.123	7683.09
670.31	5970.3
670.497	4240.3
670.684	2856.48
670.871	1831.62
671.058	1139.25
671.245	750.67
671.432	450.77
671.619	336.36
671.806	242.13
671.993	208.44
672.18	167.89
672.367	147.72
672.554	101.06
672.741	112.91
672.928	104.95
673.115	104.77
673.302	78.11
673.488	82.92
673.675	77.18
673.862	83.11
674.049	75.7
674.235	37.94
674.422	49.23
674.609	78.11
674.796	46.82
674.982	50.15
675.169	59.97
675.356	62.93
675.542	55.52
675.729	67.37
675.916	42.19
676.102	77
676.289	63.11
676.475	58.67
676.662	42.01
676.848	52.56
677.035	39.23
677.221	39.79
677.408	43.86
677.594	39.97
677.781	47.01
677.967	89.59
678.154	40.71
678.34	69.78
678.526	15.54
678.713	47.75
678.899	45.71
679.085	72.18
679.272	32.38
679.458	58.85
679.644	41.82
679.831	43.86
680.017	43.49
680.203	63.85
680.389	29.97
680.576	58.85
680.762	31.09
680.948	47.75
681.134	37.38
681.32	62.74
681.506	34.79
681.692	42.01
681.879	64.41
682.065	51.82
682.251	39.42
682.437	47.75
682.623	23.87
682.809	50.52
682.995	41.64
683.181	47.19
683.367	39.6
683.553	39.23
683.739	47.19
683.924	67.93
684.11	45.9
684.296	73.29
684.482	50.34
684.668	52.19
684.854	19.24
685.04	59.41
685.225	40.9
685.411	54.78
685.597	32.75
685.783	82.92
685.968	62.56
686.154	56.45
686.34	64.22
686.526	79.03
686.711	56.26
686.897	80.14
687.083	56.63
687.268	86.44
687.454	95.51
687.639	107.73
687.825	98.29
688.01	120.32
688.196	107.17
688.382	152.53
688.567	212.14
688.752	783.99
688.938	3085.48
689.123	8510.6
689.309	14304.31
689.494	19526.9
689.68	23723.34
689.865	26384.15
690.05	25672.71
690.236	22325.26
690.421	19413.42
690.606	16679.84
690.792	13912.58
690.977	11617.94
691.162	9443.64
691.348	7430.2
691.533	5586.35
691.718	4147.36
691.903	3028.09
692.089	2141.71
692.274	1429.53
692.459	965.23
692.644	605.53
692.829	439.66
693.014	303.59
693.199	231.58
693.384	176.59
693.569	174.56
693.755	152.9
693.94	118.65
694.125	94.21
694.31	105.69
694.495	69.78
694.68	70.7
694.864	98.47
695.049	106.62
695.234	77.18
695.419	104.21
695.604	84.03
695.789	89.59
695.974	77
696.159	89.59
696.344	75.89
696.528	105.14
696.713	94.58
696.898	122.54
697.083	107.54
697.267	120.87
697.452	116.98
697.637	126.98
697.822	162.9
698.006	179.56
698.191	234.17
698.375	432.44
698.56	850.64
698.745	1431.75
698.929	2053.77
699.114	4034.25
699.298	9906.82
699.483	19304.19
699.668	26905.65
699.852	34300.88
700.037	39310.4
700.221	41331.79
700.405	38270.17
700.59	33397.65
700.774	28514.95
700.959	24039.53
701.143	20058.02
701.328	16280.53
701.512	12690.19
701.696	9832.4
701.881	7507.22
702.065	5995.29
702.249	4628.14
702.433	3633.82
702.618	2761.7
702.802	2135.23
702.986	1610.03
703.17	1239.96
703.355	906.92
703.539	717.72
703.723	563.14
703.907	475.2
704.091	373.75
704.275	315.62
704.46	219.91
704.644	225.84
704.828	182.52
705.012	157.53
705.196	112.17
705.38	105.88
705.564	77.92
705.748	105.69
705.932	104.77
706.116	77.18
706.3	79.77
706.484	81.07
706.668	42.93
706.851	65.33
707.035	72
707.219	58.67
707.403	49.97
707.587	50.15
707.771	55.34
707.954	47.19
708.138	64.96
708.322	55.89
708.506	28.86
708.689	57
708.873	51.08
709.057	63.3
709.241	45.34
709.424	67.56
709.608	30.16
709.792	63.3
709.975	27.57
710.159	50.52
710.342	42.01
710.526	53.49
710.709	41.08
710.893	44.6
711.077	25.16
711.26	31.46
711.443	29.23
711.627	33.12
711.81	30.9
711.994	37.38
712.177	60.52
712.361	62.93
712.544	34.42
712.727	62.56
712.911	67.56
713.094	112.36
713.277	308.03
713.461	1050.02
713.644	2167.07
713.827	3077.15
714.011	3905.59
714.194	4588.7
714.377	4829.55
714.56	4406.91
714.743	3759.15
714.927	3148.42
715.11	2559.91
715.293	2102.83
715.476	1623.54
715.659	1320.67
715.842	1007.81
716.025	824.72
716.208	667.36
716.391	558.32
716.575	429.66
716.758	349.5
716.941	212.14
717.124	182.52
717.306	117.17
717.489	81.07
717.672	67
717.855	56.45
718.038	33.68
718.221	42.56
718.404	45.34
718.587	63.11
718.77	31.09
718.952	53.3
719.135	64.78
719.318	69.96
719.501	59.97
719.684	87.18
719.866	78.85
720.049	130.68
720.232	291
720.414	1153.88
720.597	3542
720.78	7095.87
720.962	9965.88
721.145	12715.18
721.328	14467.22
721.51	15169.03
721.693	13461.8
721.875	11237.69
722.058	9190.2
722.24	7446.31
722.423	5884.22
722.605	4587.04
722.788	3603.83
722.97	2990.88
723.153	2415.51
723.335	2066.92
723.518	1688.52
723.7	1393.61
723.882	1065.39
724.065	759.19
724.247	523.89
724.429	371.35
724.612	252.87
724.794	174.56
724.976	124.94
725.159	105.88
725.341	74.59
725.523	74.96
725.705	47.01
725.888	86.62
726.07	57.93
726.252	49.78
726.434	54.23
726.616	21.09
726.798	32.75
726.98	41.08
727.162	32.38
727.345	33.12
727.527	27.38
727.709	34.97
727.891	46.08
728.073	52.38
728.255	41.27
728.437	34.79
728.619	29.23
728.801	45.53
728.982	16.65
729.164	23.13
729.346	2.76
729.528	26.83
729.71	14.24
729.892	22.57
730.074	5.72
730.255	-2.24
730.437	31.09
730.619	31.83
730.801	24.24
730.983	51.45
731.164	57.74
731.346	20.53
731.528	16.09
731.709	15.35
731.891	9.43
732.073	-0.02
732.254	20.53
732.436	19.61
732.617	1.1
732.799	30.72
732.981	9.43
733.162	35.9
733.344	2.95
733.525	23.31
733.707	1.28
733.888	8.87
734.07	13.87
734.251	19.24
734.433	8.32
734.614	16.28
734.795	8.13
734.977	41.27
735.158	15.72
735.34	7.94
735.521	-7.05
735.702	27.01
735.883	11.65
736.065	-6.31
736.246	21.64
736.427	-6.31
736.609	19.05
736.79	41.45
736.971	-1.13
737.152	24.61
737.333	9.06
737.514	12.94
737.696	-0.76
737.877	9.43
738.058	35.53
738.239	18.5
738.42	12.2
738.601	29.23
738.782	10.91
738.963	33.12
739.144	34.79
739.325	26.64
739.506	32.57
739.687	192.89
739.868	595.91
740.049	1427.49
740.23	2168.18
740.411	2869.07
740.592	3313.37
740.773	3551.44
740.953	3303.19
741.134	2698.57
741.315	2088.95
741.496	1612.25
741.677	1255.51
741.857	1031.32
742.038	860.27
742.219	715.5
742.4	613.12
742.58	543.7
742.761	493.9
742.942	422.81
743.122	381.9
743.303	349.5
743.484	307.66
743.664	247.5
743.845	206.96
744.025	200.29
744.206	143.83
744.386	141.05
744.567	106.62
744.748	202.7
744.928	398.38
745.108	704.94
745.289	920.62
745.469	1178.31
745.65	1259.58
745.83	1252.92
746.011	1100.56
746.191	837.12
746.371	666.44
746.552	534.44
746.732	437.25
746.912	387.45
747.093	316.37
747.273	280.82
747.453	226.39
747.633	235.28
747.814	213.06
747.994	201.59
748.174	129.76
748.354	128.28
748.534	80.14
748.715	89.77
748.895	59.78
749.075	47.56
749.255	69.41
749.435	139.2
749.615	308.22
749.795	564.99
749.975	797.32
750.155	974.67
750.335	1161.28
750.515	1275.69
750.695	1179.42
750.875	1055.94
751.055	986.89
751.235	906.73
751.415	806.21
751.595	675.88
751.775	528.52
751.954	452.99
752.134	378.57
752.314	344.13
752.494	276.75
752.674	255.64
752.854	226.76
753.033	193.44
753.213	160.12
753.393	146.6
753.572	113.84
753.752	100.32
753.932	64.04
754.111	58.3
754.291	34.42
754.471	50.89
754.65	6.09
754.83	24.79
755.01	-12.05
755.189	8.5
755.369	7.02
755.548	0.17
755.728	7.76
755.907	21.27
756.087	24.24
756.266	24.24
756.446	17.57
756.625	25.72
756.804	18.31
756.984	20.16
757.163	-19.08
757.343	20.35
757.522	9.43
757.701	17.02
757.881	-3.53
758.06	9.43
758.239	3.87
758.418	4.8
758.598	10.54
758.777	14.98
758.956	1.28
759.135	17.76
759.315	0.91
759.494	26.83
759.673	6.46
759.852	2.95
760.031	-9.09
760.21	19.61
760.389	-21.3
760.568	6.46
760.748	-2.79
760.927	3.13
761.106	-23.16
761.285	36.64
761.464	1.65
761.643	-0.39
761.822	-1.13
762	33.86
762.179	-4.46
762.358	19.98
762.537	8.32
762.716	13.5
762.895	6.28
763.074	-5.2
763.253	-9.09
763.431	8.32
763.61	4.43
763.789	10.72
763.968	1.65
764.147	8.5
764.325	17.02
764.504	-5.75
764.683	2.58
764.861	22.01
765.04	-3.53
765.219	-2.61
765.397	-5.75
765.576	1.1
765.755	-15.01
765.933	16.09
766.112	-23.16
766.29	-5.75
766.469	-19.08
766.647	-1.5
766.826	-24.64
767.004	4.8
767.183	-5.75
767.361	18.87
767.54	-5.01
767.718	21.83
767.897	12.76
768.075	-11.68
768.253	12.39
768.432	-5.38
768.61	12.76
768.788	-11.49
768.967	-4.27
769.145	-4.64
769.323	-13.16
769.501	11.83
769.68	5.17
769.858	-6.87
770.036	3.69
770.214	0.54
770.393	19.05
770.571	18.13
770.749	-3.53
770.927	-7.79
771.105	-2.24
771.283	-2.24
771.461	11.09
771.639	18.87
771.817	-11.49
771.995	4.98
772.173	-2.24
772.351	29.79
772.529	-11.68
772.707	4.8
772.885	5.72
773.063	0.54
773.241	8.13
773.419	18.87
773.597	8.13
773.775	10.54
773.953	9.43
774.131	35.53
774.308	13.13
774.486	18.68
774.664	5.72
774.842	28.49
775.02	9.43
775.197	5.91
775.375	3.5
775.553	-0.2
775.73	11.28
775.908	17.02
776.086	16.09
776.263	14.79
776.441	-2.42
776.619	3.87
776.796	-28.34
776.974	8.32
777.151	-2.79
777.329	2.21
777.506	3.69
777.684	2.21
777.861	-14.83
778.039	13.87
778.216	-17.23
778.394	7.57
778.571	-11.49
778.749	2.21
778.926	-7.61
779.103	-14.46
779.281	-11.12
779.458	14.61
779.635	-7.42
779.813	-18.53
779.99	-19.82
780.167	21.83
780.345	18.87
780.522	23.5
780.699	8.5
780.876	19.79
781.054	-5.75
781.231	0.35
781.408	6.65
781.585	4.8
781.762	9.43
781.939	4.8
782.116	-6.68
782.294	5.54
782.471	-0.02
782.648	16.28
782.825	5.35
783.002	13.87
783.179	-32.41
783.356	13.5
783.533	4.98
783.71	34.23
783.887	1.65
784.064	3.87
784.24	-15.75
784.417	-9.83
784.594	0.17
784.771	-2.61
784.948	-7.61
785.125	17.94
785.302	14.42
785.478	14.42
785.655	-10.75
785.832	3.5
786.009	12.76
786.185	19.98
786.362	-5.38
786.539	1.65
786.715	17.39
786.892	9.61
787.069	3.69
787.245	17.57
787.422	0.91
787.599	2.76
787.775	20.53
787.952	39.79
788.128	-15.38
788.305	4.98
788.481	1.28
788.658	8.5
788.834	6.46
789.011	-5.38
789.187	10.91
789.364	-4.83
789.54	-21.86
789.717	17.76
789.893	0.73
790.069	46.82
790.246	33.12
790.422	100.51
790.598	108.28
790.775	121.43
790.951	101.43
791.127	119.95
791.304	96.99
791.48	88.85
791.656	68.3
791.832	63.85
792.008	52.75
792.185	74.22
792.361	31.64
792.537	35.16
792.713	25.35
792.889	37.94
793.065	19.98
793.241	33.68
793.417	22.2
793.593	34.42
793.769	24.61
793.945	37.01
794.121	6.28
794.297	37.01
794.473	-0.2
794.649	31.83
794.825	15.54
795.001	18.87
795.177	-2.42
795.353	10.17
795.529	11.09
795.705	-5.2
795.881	-2.61
796.056	2.02
796.232	0.17
796.408	24.05
796.584	12.39
796.76	10.54
796.935	-11.68
797.111	24.42
797.287	-1.13
797.462	-2.42
797.638	-4.46
797.814	9.8
797.989	-12.05
798.165	-4.09
798.341	-24.08
798.516	4.98
798.692	-10.94
798.867	19.24
799.043	10.72
799.218	8.87
799.394	-13.9
799.569	28.49
799.745	16.28
799.92	13.31
800.096	-14.09
800.271	1.65
800.447	12.39
800.622	11.28
800.797	-6.31
800.973	5.91
801.148	-22.23
801.323	-8.35
801.499	-1.31
801.674	18.5
801.849	-23.9
802.025	22.01
802.2	-5.94
802.375	23.5
802.55	-9.27
802.725	19.42
802.901	-21.12
803.076	8.87
803.251	-11.12
803.426	10.54
803.601	-22.05
803.776	-2.98
803.951	-7.24
804.127	12.57
804.302	13.31
804.477	32.2
804.652	25.53
804.827	42.19
805.002	19.98
805.177	39.6
805.352	24.42
805.526	52.75
805.701	17.2
805.876	56.08
806.051	15.35
806.226	18.68
806.401	20.72
806.576	34.79
806.751	15.91
806.925	30.53
807.1	18.5
807.275	31.83
807.45	9.61
807.625	24.24
807.799	35.34
807.974	39.6
808.149	20.53
808.323	27.75
808.498	30.16
808.673	57.56
808.847	25.72
809.022	23.13
809.197	25.35
809.371	49.23
809.546	54.41
809.72	91.07
809.895	96.07
810.069	114.21
810.244	126.98
810.418	140.31
810.593	133.28
810.767	135.87
810.942	101.25
811.116	106.8
811.29	84.77
811.465	93.66
811.639	73.66
811.814	78.66
811.988	62.37
812.162	57
812.337	23.68
812.511	66.07
812.685	22.2
812.859	44.6
813.034	36.45
813.208	55.89
813.382	32.57
813.556	40.34
813.73	34.42
813.905	12.94
814.079	13.13
814.253	33.31
814.427	19.24
814.601	7.2
814.775	1.47
814.949	-11.86
815.123	-14.27
815.297	-25.56
815.471	11.09
815.645	23.31
815.819	-34.45
815.993	2.76
816.167	13.31
816.341	-8.35
816.515	-19.45
816.689	-4.09
816.863	4.24
817.037	7.94
817.21	2.58
817.384	19.98
817.558	11.28
817.732	12.02
817.906	8.5
818.079	-9.83
818.253	7.57
818.427	-3.9
818.601	-22.05
818.774	14.61
818.948	-12.05
819.122	15.72
819.295	8.32
819.469	-3.35
819.643	-10.57
819.816	14.79
819.99	-9.46
820.163	-14.83
820.337	-2.05
820.511	1.65
820.684	-10.94
820.858	3.5
821.031	4.24
821.205	-2.61
821.378	2.02
821.551	11.83
821.725	23.5
821.898	7.2
822.072	-9.09
822.245	29.23
822.418	-1.31
822.592	25.35
822.765	20.16
822.938	45.71
823.112	42.75
823.285	48.86
823.458	65.33
823.631	57
823.805	38.49
823.978	61.45
824.151	42.93
824.324	55.71
824.497	30.72
824.671	52
824.844	16.83
825.017	43.67
825.19	32.01
825.363	-2.98
825.536	13.68
825.709	22.38
825.882	36.64
826.055	54.78
826.228	66.07
826.401	102.36
826.574	149.2
826.747	165.67
826.92	148.64
827.093	158.08
827.266	123.83
827.439	125.13
827.612	78.29
827.785	95.51
827.957	89.03
828.13	104.4
828.303	66.44
828.476	70.7
828.649	76.44
828.821	93.84
828.994	56.45
829.167	54.04
829.34	48.67
829.512	62.37
829.685	78.66
829.858	50.89
830.03	20.9
830.203	40.34
830.375	31.27
830.548	50.89
830.721	26.46
830.893	32.01
831.066	22.76
831.238	11.83
831.411	-12.97
831.583	9.61
831.756	-2.24
831.928	12.94
832.101	-9.64
832.273	-1.87
832.446	0.35
832.618	6.46
832.79	-11.86
832.963	30.72
833.135	22.01
833.307	25.72
833.48	35.16
833.652	62
833.824	109.76
833.997	161.78
834.169	216.4
834.341	330.06
834.513	394.67
834.686	475.94
834.858	475.57
835.03	509.08
835.202	455.76
835.374	432.81
835.546	403
835.718	373.75
835.891	338.58
836.063	344.87
836.235	309.7
836.407	273.23
836.579	271.56
836.751	247.5
836.923	225.28
837.095	238.8
837.267	209.73
837.439	211.95
837.611	189.37
837.782	181.22
837.954	166.78
838.126	183.44
838.298	178.63
838.47	198.25
838.642	159.01
838.814	160.12
838.985	136.98
839.157	148.83
839.329	82.55
839.501	122.17
839.672	111.43
839.844	76.07
840.016	67.19
840.188	83.29
840.359	74.59
840.531	49.41
840.702	30.72
840.874	45.9
841.046	42.38
841.217	39.79
841.389	38.86
841.56	42.75
841.732	13.13
841.903	32.01
842.075	21.64
842.246	36.45
842.418	19.05
842.589	47.93
842.761	16.65
842.932	24.05
843.104	17.76
843.275	25.72
843.446	0.91
843.618	1.84
843.789	24.05
843.96	17.57
844.132	-19.45
844.303	35.34
844.474	-13.9
844.646	19.61
844.817	11.65
844.988	27.01
845.159	24.61
845.331	45.71
845.502	-13.53
845.673	57.74
845.844	5.72
846.015	91.25
846.186	107.91
846.357	135.68
846.528	192.15
846.7	211.4
846.871	186.22
847.042	228.8
847.213	218.8
847.384	208.99
847.555	203.25
847.726	179.74
847.897	164.75
848.067	167.34
848.238	139.38
848.409	159.93
848.58	136.79
848.751	127.72
848.922	111.43
849.093	129.39
849.264	102.54
849.434	129.2
849.605	87.92
849.776	96.81
849.947	70.7
850.117	69.41
850.288	54.78
850.459	71.44
850.63	67.37
850.8	77.18
850.971	30.16
851.142	42.19
851.312	22.38
851.483	28.12
851.653	4.43
851.824	22.76
851.995	13.13
852.165	31.64
852.336	8.5
852.506	7.02
852.677	9.8
852.847	-13.16
853.018	-9.83
853.188	39.79
853.358	-8.35
853.529	17.02
853.699	-12.79
853.87	5.35
854.04	-3.35
854.21	14.61
854.381	-15.57
854.551	27.38
854.721	-2.61
854.892	-0.94
855.062	-19.82
855.232	14.05
855.402	-2.05
855.573	45.34
855.743	19.98
855.913	29.97
856.083	29.23
856.253	65.89
856.423	40.16
856.594	82.18
856.764	61.45
856.934	80.51
857.104	93.1
857.274	88.85
857.444	64.22
857.614	90.88
857.784	53.12
857.954	71.26
858.124	51.08
858.294	64.22
858.464	55.52
858.634	62.19
858.804	45.53
858.974	52.38
859.143	42.38
859.313	17.57
859.483	41.27
859.653	50.71
859.823	24.42
859.993	58.3
860.162	64.78
860.332	45.71
860.502	42.75
860.672	65.33
860.841	54.41
861.011	62.74
861.181	42.38
861.35	89.4
861.52	72.18
861.69	81.25
861.859	47.38
862.029	97.92
862.198	69.96
862.368	108.28
862.538	107.73
862.707	151.42
862.877	114.02
863.046	169.56
863.216	152.34
863.385	179.93
863.555	152.16
863.724	199
863.893	153.08
864.063	178.45
864.232	151.97
864.402	165.86
864.571	136.98
864.74	136.05
864.91	125.31
865.079	137.72
865.248	109.58
865.418	129.02
865.587	97.73
865.756	105.51
865.925	119.58
866.094	125.87
866.264	108.84
866.433	106.43
866.602	74.41
866.771	74.22
866.94	86.99
867.109	64.96
867.278	53.49
867.448	50.52
867.617	18.87
867.786	27.2
867.955	22.76
868.124	41.82
868.293	8.69
868.462	28.31
868.631	19.61
868.8	43.12
868.969	-8.16
869.137	26.09
869.306	22.76
869.475	18.68
869.644	33.31
869.813	15.72
869.982	12.02
870.151	17.02
870.319	-1.68
870.488	16.28
870.657	1.1
870.826	7.39
870.995	-2.79
871.163	-11.12
871.332	-4.09
871.501	9.06
871.669	-17.23
871.838	19.05
872.007	-6.87
872.175	-15.38
872.344	-22.05
872.512	17.2
872.681	-0.02
872.85	1.1
873.018	20.16
873.187	-8.16
873.355	-12.6
873.524	-4.64
873.692	-11.68
873.861	6.46
874.029	0.17
874.197	9.24
874.366	3.87
874.534	9.24
874.703	-16.68
874.871	8.32
875.039	-1.68
875.208	23.87
875.376	-14.46
875.544	27.38
875.713	24.61
875.881	58.3
876.049	69.04
876.217	80.88
876.386	108.1
876.554	107.73
876.722	103.84
876.89	154.94
877.058	118.65
877.226	121.98
877.395	105.88
877.563	116.61
877.731	119.39
877.899	109.58
878.067	94.95
878.235	56.63
878.403	108.65
878.571	92.36
878.739	54.41
878.907	78.85
879.075	61.45
879.243	76.63
879.411	74.22
879.579	45.53
879.747	49.23
879.914	43.86
880.082	38.49
880.25	26.27
880.418	14.98
880.586	24.79
880.754	25.16
880.921	12.76
881.089	14.42
881.257	28.86
881.425	1.65
881.592	7.2
881.76	-11.86
881.928	-0.76
882.095	-5.94
882.263	12.39
882.431	16.83
882.598	-1.5
882.766	-9.64
882.933	16.09
883.101	-13.71
883.269	-8.35
883.436	10.54
883.604	4.24
883.771	14.24
883.939	24.24
884.106	3.13
884.273	20.16
884.441	15.35
884.608	36.82
884.776	12.02
884.943	39.79
885.11	33.12
885.278	29.6
885.445	3.5
885.613	28.86
885.78	25.16
885.947	52.56
886.114	47.75
886.282	34.6
886.449	15.91
886.616	30.53
886.783	7.2
886.951	42.19
887.118	24.61
887.285	27.01
887.452	20.53
887.619	7.94
887.786	10.91
887.953	9.8
888.12	0.91
888.287	22.01
888.455	-2.05
888.622	-0.94
888.789	-13.16
888.956	21.83
889.123	-10.2
889.29	-10.01
889.456	2.02
889.623	-7.05
889.79	-25.38
889.957	-7.05
890.124	-12.05
890.291	4.8
890.458	-1.31
890.625	0.17
890.791	11.65
890.958	-1.13
891.125	0.73
891.292	15.72
891.459	8.87
891.625	3.87
891.792	1.28
891.959	10.17
892.125	-7.61
892.292	6.46
892.459	15.35
892.625	17.02
892.792	6.46
892.959	1.84
893.125	8.87
893.292	-0.02
893.458	5.54
893.625	5.54
893.791	-7.79
893.958	1.84
894.124	-13.34
894.291	13.13
894.457	-8.16
894.624	-15.57
894.79	-2.61
894.957	10.91
895.123	-4.64
895.289	-1.5
895.456	-14.27
895.622	7.02
895.788	0.54
895.955	-17.97
896.121	-25.38
896.287	20.72
896.454	-3.9
896.62	3.69
896.786	-13.53
896.952	14.79
897.119	10.54
897.285	-6.87
897.451	-3.9
897.617	-1.31
897.783	-8.35
897.949	-10.01
898.115	-7.61
898.281	-6.49
898.448	-15.57
898.614	5.54
898.78	-3.35
898.946	-5.01
899.112	-3.16
899.278	17.02
899.444	-23.34
899.61	15.35
899.775	-8.16
899.941	-0.76
900.107	2.76
900.273	-7.05
900.439	-14.83
900.605	11.09
900.771	1.84
900.937	1.65
901.102	-2.61
901.268	2.39
901.434	-12.42
901.6	7.76
901.766	10.17
901.931	-15.38
902.097	-7.98
902.263	14.79
902.428	-18.53
902.594	-2.24
902.76	-4.46
902.925	-12.05
903.091	-4.46
903.256	0.91
903.422	-17.97
903.588	-32.41
903.753	3.87
903.919	3.87
904.084	8.69
904.25	-11.12
904.415	8.32
904.581	-1.13
904.746	-23.53
904.912	17.02
905.077	-1.31
905.242	-4.27
905.408	-0.2
905.573	9.06
905.738	-8.53
905.904	19.98
906.069	19.98
