Data from FLMT087451__22__14-13-22-506.txt Node

Date: Tue Jun 04 14:13:22 JST 2024
User: power
Spectrometer: FLMT08745
Trigger mode: 0
Integration Time (sec): 2.000000E-2
Scans to average: 11
Electric dark correction enabled: true
Nonlinearity correction enabled: false
Boxcar width: 0
XAxis mode: Wavelengths
Number of Pixels in Spectrum: 3648
>>>>>Begin Spectral Data<<<<<
194.923	-49.49
195.148	-49.49
195.372	-49.49
195.597	-37.27
195.821	-13.02
196.046	-0.99
196.271	-3.58
196.495	-1.91
196.72	7.34
196.944	-5.25
197.169	-1.54
197.393	6.6
197.618	-5.43
197.842	-4.32
198.067	13.45
198.291	-4.69
198.516	0.31
198.74	-16.91
198.964	21.78
199.189	0.49
199.413	31.22
199.637	20.3
199.862	-18.02
200.086	3.46
200.31	41.04
200.535	19.01
200.759	31.04
200.983	-5.8
201.207	4.57
201.432	2.34
201.656	8.45
201.88	14.38
202.104	-6.91
202.328	11.23
202.552	28.45
202.777	-3.02
203.001	18.08
203.225	-10.61
203.449	4.01
203.673	-6.91
203.897	-3.76
204.121	-3.76
204.345	19.75
204.569	-17.28
204.793	33.45
205.017	-8.76
205.241	28.63
205.465	-1.73
205.689	3.27
205.912	-8.58
206.136	-9.5
206.36	-20.06
206.584	25.49
206.808	-31.53
207.032	-4.69
207.255	5.12
207.479	7.9
207.703	-9.32
207.927	4.38
208.15	0.68
208.374	2.72
208.598	4.01
208.822	32.15
209.045	11.23
209.269	12.34
209.492	27.34
209.716	25.49
209.94	18.27
210.163	15.67
210.387	-13.21
210.61	30.67
210.834	-10.06
211.057	-20.98
211.281	6.05
211.504	0.12
211.728	-6.73
211.951	20.3
212.175	14.19
212.398	6.6
212.622	8.08
212.845	30.48
213.068	0.31
213.292	12.53
213.515	2.34
213.738	-8.76
213.962	11.6
214.185	-3.39
214.408	21.23
214.631	24
214.855	26.78
215.078	25.86
215.301	10.68
215.524	8.08
215.747	16.6
215.971	14.56
216.194	-0.06
216.417	6.23
216.64	15.86
216.863	68.06
217.086	-1.73
217.309	45.66
217.532	1.97
217.755	-12.47
217.978	-2.1
218.201	23.82
218.424	-10.98
218.647	-6.36
218.87	1.42
219.093	8.08
219.316	16.41
219.539	15.86
219.762	-6.73
219.985	19.93
220.207	-16.17
220.43	18.08
220.653	28.63
220.876	21.78
221.099	23.45
221.321	20.86
221.544	-7.47
221.767	21.97
221.99	-6.73
222.212	1.42
222.435	15.12
222.658	39.37
222.88	4.57
223.103	21.97
223.326	-5.43
223.548	12.16
223.771	-23.39
223.993	24.37
224.216	-24.87
224.438	6.42
224.661	0.12
224.883	29.19
225.106	42.89
225.328	-6.54
225.551	11.42
225.773	2.53
225.996	-4.5
226.218	26.78
226.44	-14.69
226.663	23.45
226.885	5.49
227.108	18.27
227.33	1.79
227.552	4.01
227.774	1.05
227.997	19.93
228.219	-7.28
228.441	16.6
228.663	9.19
228.886	26.23
229.108	4.2
229.33	10.68
229.552	1.05
229.774	17.9
229.996	8.82
230.219	21.6
230.441	-8.76
230.663	31.22
230.885	-14.13
231.107	10.31
231.329	-1.91
231.551	15.12
231.773	2.9
231.995	7.16
232.217	1.42
232.439	25.67
232.661	0.31
232.883	7.9
233.105	6.97
233.326	23.82
233.548	8.64
233.77	15.86
233.992	33.63
234.214	15.3
234.436	18.27
234.657	27.52
234.879	37.15
235.101	4.01
235.323	-2.47
235.544	3.64
235.766	12.9
235.988	11.42
236.21	-4.5
236.431	29.74
236.653	15.67
236.874	29.19
237.096	5.68
237.318	5.12
237.539	16.97
237.761	9.94
237.982	11.42
238.204	38.44
238.425	-5.8
238.647	5.68
238.868	-15.24
239.09	31.59
239.311	21.78
239.533	18.82
239.754	12.34
239.975	14.01
240.197	1.23
240.418	-11.17
240.64	13.45
240.861	-1.91
241.082	-2.47
241.304	12.16
241.525	3.64
241.746	9.38
241.967	-24.68
242.189	11.79
242.41	9.75
242.631	15.86
242.852	-8.76
243.073	21.6
243.294	9.19
243.516	6.23
243.737	12.34
243.958	0.49
244.179	3.64
244.4	36.78
244.621	-1.73
244.842	4.2
245.063	35.85
245.284	8.08
245.505	-7.1
245.726	4.75
245.947	7.71
246.168	11.42
246.389	-3.21
246.61	42.33
246.831	0.68
247.052	11.23
247.272	13.82
247.493	26.23
247.714	-0.06
247.935	-32.46
248.156	12.71
248.376	43.63
248.597	13.45
248.818	15.12
249.039	3.83
249.259	21.6
249.48	-3.21
249.701	34
249.921	-9.69
250.142	28.82
250.363	-3.39
250.583	12.34
250.804	-1.73
251.025	22.71
251.245	21.04
251.466	18.82
251.686	9.38
251.907	34.93
252.127	0.12
252.348	10.49
252.568	-1.91
252.789	0.49
253.009	20.67
253.23	28.26
253.45	6.05
253.67	36.96
253.891	-12.28
254.111	33.45
254.331	-4.13
254.552	2.16
254.772	-8.95
254.992	6.97
255.213	-6.91
255.433	16.23
255.653	-1.91
255.873	19.93
256.093	8.08
256.314	15.86
256.534	20.49
256.754	20.67
256.974	-5.25
257.194	30.85
257.414	-4.5
257.634	22.71
257.855	-8.95
258.075	-2.65
258.295	11.97
258.515	14.19
258.735	7.71
258.955	12.34
259.175	-6.54
259.395	20.49
259.615	15.86
259.835	41.59
260.054	-4.87
260.274	13.82
260.494	25.3
260.714	30.3
260.934	7.9
261.154	29
261.374	-8.95
261.593	26.04
261.813	-17.28
262.033	5.31
262.253	-6.91
262.472	20.67
262.692	2.53
262.912	6.05
263.132	19.01
263.351	37.7
263.571	18.64
263.791	2.72
264.01	18.27
264.23	19.56
264.449	5.49
264.669	29
264.888	21.41
265.108	8.08
265.328	8.27
265.547	1.97
265.767	12.71
265.986	-18.76
266.205	6.42
266.425	31.97
266.644	-0.62
266.864	10.31
267.083	-4.32
267.303	3.64
267.522	-0.06
267.741	37.52
267.961	16.6
268.18	-4.32
268.399	23.45
268.618	15.67
268.838	22.52
269.057	17.34
269.276	-7.47
269.495	13.82
269.715	16.78
269.934	19.01
270.153	21.6
270.372	9.94
270.591	27.71
270.81	21.97
271.029	0.12
271.249	27.52
271.468	24.19
271.687	6.23
271.906	13.45
272.125	41.41
272.344	28.63
272.563	21.23
272.782	0.49
273.001	12.16
273.22	6.79
273.439	21.78
273.657	18.45
273.876	7.71
274.095	-11.17
274.314	28.45
274.533	18.82
274.752	8.45
274.971	18.64
275.189	28.08
275.408	16.23
275.627	3.09
275.846	15.12
276.064	20.67
276.283	-23.2
276.502	13.27
276.72	-0.62
276.939	-5.25
277.158	6.6
277.376	29
277.595	25.49
277.814	24.75
278.032	8.64
278.251	-4.13
278.469	-16.91
278.688	18.45
278.906	11.97
279.125	33.08
279.343	6.79
279.562	19.38
279.78	0.31
279.999	20.49
280.217	18.64
280.435	34.19
280.654	11.97
280.872	19.75
281.091	-10.98
281.309	23.08
281.527	-11.54
281.746	21.78
281.964	3.09
282.182	21.6
282.4	10.49
282.619	23.82
282.837	6.05
283.055	1.97
283.273	12.16
283.491	18.82
283.71	17.71
283.928	4.57
284.146	-15.98
284.364	30.85
284.582	3.27
284.8	21.97
285.018	-9.5
285.236	-1.54
285.454	11.6
285.672	12.71
285.89	12.71
286.108	13.45
286.326	7.34
286.544	21.41
286.762	-24.31
286.98	23.26
287.198	19.19
287.416	24.19
287.634	1.97
287.851	44.18
288.069	22.52
288.287	7.34
288.505	0.31
288.723	1.42
288.94	-2.1
289.158	12.16
289.376	16.6
289.594	25.86
289.811	16.78
290.029	32.34
290.247	0.86
290.464	16.78
290.682	-34.12
290.9	22.34
291.117	11.79
291.335	30.3
291.552	4.2
291.77	16.04
291.987	0.12
292.205	0.86
292.422	-14.87
292.64	32.52
292.857	-2.28
293.075	23.63
293.292	5.12
293.51	40.48
293.727	-13.39
293.945	28.26
294.162	21.6
294.379	12.16
294.597	3.64
294.814	9.94
295.031	-0.06
295.249	40.85
295.466	-5.99
295.683	9.38
295.9	2.9
296.118	-11.35
296.335	-14.69
296.552	31.04
296.769	7.71
296.986	12.71
297.204	1.79
297.421	14.38
297.638	11.42
297.855	24.56
298.072	0.12
298.289	5.49
298.506	-17.65
298.723	31.04
298.94	2.34
299.157	13.82
299.374	8.08
299.591	17.71
299.808	-7.65
300.025	-7.84
300.242	-5.06
300.459	22.89
300.676	-11.17
300.893	8.08
301.109	-0.25
301.326	26.04
301.543	23.63
301.76	3.46
301.977	-19.13
302.193	0.49
302.41	19.19
302.627	-13.76
302.844	11.42
303.06	16.04
303.277	13.45
303.494	17.34
303.71	13.27
303.927	-2.47
304.144	0.86
304.36	26.6
304.577	16.41
304.793	31.97
305.01	-8.21
305.227	20.67
305.443	-19.5
305.66	22.52
305.876	-39.68
306.093	7.71
306.309	-0.25
306.526	-2.47
306.742	9.38
306.958	-1.54
307.175	-6.36
307.391	-14.13
307.608	-5.62
307.824	25.49
308.04	-4.13
308.257	24.93
308.473	20.3
308.689	13.82
308.905	7.71
309.122	14.19
309.338	0.49
309.554	19.01
309.77	7.53
309.986	24.37
310.203	4.2
310.419	4.2
310.635	19.01
310.851	13.27
311.067	-0.8
311.283	17.34
311.499	-0.43
311.715	11.79
311.931	15.12
312.147	15.86
312.363	-5.43
312.579	39
312.795	14.56
313.011	1.05
313.227	18.27
313.443	33.26
313.659	9.19
313.875	22.89
314.091	2.34
314.307	27.71
314.523	10.49
314.738	-1.17
314.954	-2.1
315.17	15.3
315.386	13.27
315.602	15.12
315.817	-13.39
316.033	8.45
316.249	16.41
316.465	32.34
316.68	-9.5
316.896	4.57
317.112	-26.35
317.327	17.71
317.543	25.12
317.758	5.49
317.974	22.34
318.19	15.49
318.405	4.57
318.621	-7.47
318.836	-17.46
319.052	3.09
319.267	4.75
319.483	10.68
319.698	14.01
319.914	47.89
320.129	4.57
320.344	17.71
320.56	6.97
320.775	29
320.99	-5.25
321.206	17.71
321.421	17.34
321.636	25.3
321.852	3.64
322.067	13.27
322.282	2.53
322.498	3.46
322.713	5.49
322.928	23.82
323.143	9.56
323.358	5.86
323.574	10.12
323.789	28.26
324.004	19.01
324.219	-0.25
324.434	-15.98
324.649	-14.13
324.864	8.82
325.079	8.64
325.294	-3.39
325.509	4.2
325.724	17.16
325.939	14.56
326.154	5.12
326.369	40.67
326.584	30.85
326.799	3.46
327.014	4.75
327.229	21.04
327.444	22.34
327.659	9.94
327.873	12.16
328.088	4.2
328.303	13.45
328.518	10.31
328.733	-3.76
328.947	41.22
329.162	9.19
329.377	11.42
329.591	18.08
329.806	12.53
330.021	-0.25
330.235	29.56
330.45	3.09
330.665	1.05
330.879	-15.24
331.094	21.78
331.309	0.86
331.523	19.19
331.738	-10.24
331.952	37.7
332.167	16.78
332.381	18.27
332.596	8.27
332.81	23.45
333.025	-1.91
333.239	-0.99
333.453	-3.39
333.668	24.56
333.882	21.23
334.097	18.64
334.311	-0.43
334.525	12.34
334.74	5.12
334.954	13.45
335.168	7.34
335.382	14.75
335.597	9.01
335.811	11.42
336.025	10.31
336.239	-3.95
336.453	8.45
336.668	-10.43
336.882	14.75
337.096	17.9
337.31	-3.39
337.524	16.78
337.738	17.71
337.952	13.08
338.166	-0.06
338.38	27.71
338.594	10.86
338.808	5.49
339.022	12.16
339.236	9.01
339.45	6.6
339.664	28.08
339.878	10.31
340.092	-4.32
340.306	4.2
340.52	7.16
340.734	18.27
340.948	17.53
341.161	30.85
341.375	11.23
341.589	23.26
341.803	8.82
342.017	9.75
342.23	5.49
342.444	19.56
342.658	10.31
342.871	14.01
343.085	-7.28
343.299	11.6
343.512	13.82
343.726	-18.76
343.94	-2.47
344.153	7.53
344.367	34.93
344.58	2.53
344.794	-0.8
345.008	1.05
345.221	14.38
345.435	-6.17
345.648	26.04
345.862	-4.32
346.075	2.34
346.288	-5.62
346.502	27.71
346.715	-3.21
346.929	9.01
347.142	16.78
347.355	26.6
347.569	-11.35
347.782	11.42
347.995	-9.32
348.209	16.23
348.422	-6.54
348.635	37.15
348.848	-0.62
349.062	13.45
349.275	1.05
349.488	11.79
349.701	31.41
349.914	24.56
350.128	-0.06
350.341	8.08
350.554	-15.24
350.767	21.23
350.98	0.68
351.193	-5.62
351.406	5.68
351.619	26.23
351.832	5.12
352.045	15.49
352.258	-26.16
352.471	28.82
352.684	9.38
352.897	14.38
353.11	-11.91
353.323	28.08
353.536	-10.8
353.748	14.56
353.961	-10.8
354.174	7.34
354.387	0.31
354.6	0.31
354.813	-6.91
355.025	28.26
355.238	10.31
355.451	15.49
355.664	-17.65
355.876	12.71
356.089	12.71
356.302	6.42
356.514	19.01
356.727	13.64
356.94	11.05
357.152	8.64
357.365	-1.91
357.577	13.64
357.79	4.94
358.002	-8.21
358.215	1.97
358.427	9.56
358.64	14.93
358.852	23.45
359.065	-4.87
359.277	14.19
359.49	16.97
359.702	18.82
359.915	16.04
360.127	-8.95
360.339	14.19
360.552	14.38
360.764	-1.17
360.976	6.42
361.189	-12.09
361.401	36.22
361.613	45.11
361.825	16.41
362.038	-0.99
362.25	6.05
362.462	6.79
362.674	-4.32
362.886	16.97
363.099	7.71
363.311	15.86
363.523	24.56
363.735	-9.13
363.947	24.56
364.159	-7.1
364.371	18.64
364.583	33.82
364.795	20.49
365.007	12.9
365.219	-0.8
365.431	6.42
365.643	21.6
365.855	-11.54
366.067	-2.84
366.279	-11.17
366.491	10.86
366.703	-9.32
366.914	18.08
367.126	-21.35
367.338	8.64
367.55	2.9
367.762	22.15
367.974	10.68
368.185	9.56
368.397	8.45
368.609	14.75
368.82	0.31
369.032	33.45
369.244	-15.06
369.456	25.12
369.667	1.79
369.879	30.67
370.09	-15.06
370.302	22.89
370.514	8.27
370.725	28.63
370.937	8.45
371.148	36.22
371.36	28.45
371.571	25.3
371.783	0.12
371.994	-3.02
372.206	-9.5
372.417	32.89
372.629	-18.2
372.84	-6.17
373.051	-7.28
373.263	28.63
373.474	-14.32
373.685	4.01
373.897	16.6
374.108	17.53
374.319	-0.43
374.531	5.12
374.742	-3.39
374.953	21.6
375.164	-9.32
375.375	21.6
375.587	10.49
375.798	30.3
376.009	17.34
376.22	28.45
376.431	-4.87
376.642	20.86
376.853	14.56
377.065	6.97
377.276	4.57
377.487	17.9
377.698	14.75
377.909	-0.06
378.12	16.04
378.331	-1.17
378.542	-17.83
378.753	11.6
378.964	10.49
379.174	6.05
379.385	8.45
379.596	5.86
379.807	3.83
380.018	4.01
380.229	35.3
380.44	57.14
380.65	19.56
380.861	0.68
381.072	25.67
381.283	28.45
381.493	4.38
381.704	2.34
381.915	-10.61
382.126	-9.13
382.336	2.34
382.547	36.22
382.757	-3.21
382.968	4.2
383.179	11.23
383.389	11.97
383.6	-1.17
383.81	-1.54
384.021	37.7
384.231	34.74
384.442	21.23
384.652	-1.73
384.863	11.42
385.073	11.6
385.284	20.86
385.494	-12.28
385.705	7.9
385.915	11.97
386.125	-18.76
386.336	19.38
386.546	-9.69
386.756	17.71
386.967	21.97
387.177	19.93
387.387	6.79
387.598	13.45
387.808	26.6
388.018	9.01
388.228	10.31
388.439	28.45
388.649	4.01
388.859	5.68
389.069	-1.17
389.279	14.75
389.489	16.04
389.699	-7.28
389.909	0.86
390.12	-12.09
390.33	10.86
390.54	18.27
390.75	16.23
390.96	17.16
391.17	16.97
391.38	-2.65
391.59	-25.42
391.799	10.86
392.009	6.6
392.219	25.3
392.429	7.53
392.639	16.04
392.849	11.79
393.059	16.04
393.269	19.19
393.478	16.97
393.688	10.12
393.898	44.92
394.108	-8.39
394.317	5.49
394.527	15.12
394.737	38.26
394.947	4.57
395.156	23.45
395.366	14.38
395.576	15.67
395.785	9.56
395.995	-4.69
396.204	10.86
396.414	16.97
396.624	1.6
396.833	5.31
397.043	1.6
397.252	11.05
397.462	15.49
397.671	15.67
397.881	-9.32
398.09	-1.73
398.299	-3.21
398.509	21.41
398.718	28.45
398.928	10.68
399.137	12.16
399.346	19.38
399.556	6.97
399.765	-15.24
399.974	-10.8
400.184	3.09
400.393	-10.06
400.602	-0.06
400.811	9.01
401.021	10.12
401.23	15.67
401.439	1.23
401.648	5.49
401.857	-0.06
402.066	18.82
402.276	15.67
402.485	8.27
402.694	-3.76
402.903	15.67
403.112	5.31
403.321	0.31
403.53	6.97
403.739	11.23
403.948	11.05
404.157	24.19
404.366	8.27
404.575	21.04
404.784	30.67
404.993	0.49
405.202	34.19
405.411	16.41
405.619	0.31
405.828	-1.91
406.037	21.23
406.246	16.6
406.455	11.05
406.663	-0.43
406.872	29.93
407.081	-26.72
407.29	14.56
407.498	-5.43
407.707	9.01
407.916	27.89
408.124	44.74
408.333	19.01
408.542	-4.69
408.75	-26.35
408.959	-10.24
409.168	9.75
409.376	31.78
409.585	18.27
409.793	28.08
410.002	11.42
410.21	8.08
410.419	18.45
410.627	4.2
410.836	8.27
411.044	17.16
411.253	10.68
411.461	24.93
411.669	21.97
411.878	20.67
412.086	5.86
412.294	8.82
412.503	-14.69
412.711	19.56
412.919	4.94
413.128	13.82
413.336	6.05
413.544	2.72
413.752	22.34
413.961	25.67
414.169	2.72
414.377	18.45
414.585	22.71
414.793	18.82
415.001	11.6
415.209	16.23
415.418	-5.25
415.626	4.01
415.834	-7.47
416.042	29
416.25	-22.46
416.458	7.16
416.666	-1.54
416.874	11.42
417.082	-9.69
417.29	-8.39
417.498	22.15
417.706	3.83
417.913	-4.87
418.121	-20.24
418.329	21.6
418.537	34.19
418.745	13.08
418.953	12.53
419.161	26.04
419.368	23.26
419.576	-9.32
419.784	34.37
419.992	37.52
420.199	-8.21
420.407	-20.24
420.615	22.15
420.822	21.41
421.03	-0.06
421.238	-3.76
421.445	24
421.653	-0.06
421.861	18.08
422.068	21.97
422.276	-5.62
422.483	5.12
422.691	-6.73
422.898	17.16
423.106	-10.43
423.313	10.86
423.521	7.34
423.728	16.41
423.936	10.68
424.143	20.12
424.35	48.07
424.558	1.79
424.765	21.6
424.973	16.6
425.18	29.19
425.387	9.01
425.594	8.45
425.802	37.52
426.009	19.38
426.216	3.46
426.424	33.08
426.631	21.41
426.838	-16.91
427.045	6.42
427.252	34
427.459	16.97
427.667	16.41
427.874	0.31
428.081	18.45
428.288	15.12
428.495	1.42
428.702	17.34
428.909	12.16
429.116	6.05
429.323	19.75
429.53	6.42
429.737	9.75
429.944	13.82
430.151	24.19
430.358	17.71
430.565	30.85
430.772	5.86
430.979	-2.84
431.185	-3.39
431.392	10.12
431.599	19.38
431.806	19.75
432.013	10.31
432.219	30.85
432.426	28.26
432.633	29.74
432.84	17.71
433.046	29.74
433.253	45.29
433.46	18.64
433.666	7.34
433.873	63.62
434.08	43.63
434.286	44.92
434.493	44.92
434.7	37.89
434.906	41.04
435.113	61.22
435.319	59.18
435.526	55.48
435.732	72.14
435.939	63.99
436.145	52.33
436.352	88.43
436.558	68.43
436.765	112.68
436.971	67.14
437.177	96.94
437.384	59.18
437.59	89.72
437.796	114.16
438.003	119.9
438.209	141.74
438.415	122.49
438.622	141.37
438.828	186.92
439.034	188.03
439.24	173.96
439.447	198.76
439.653	206.72
439.859	225.42
440.065	237.83
440.271	247.64
440.477	275.96
440.683	283.18
440.89	285.59
441.096	340.01
441.302	346.68
441.508	350.94
441.714	422.95
441.92	404.62
442.126	448.87
442.332	467.2
442.538	513.66
442.744	544.21
442.95	591.6
443.156	620.3
443.361	682.5
443.567	712.49
443.773	756.18
443.979	784.69
444.185	819.31
444.391	867.62
444.596	924.83
444.802	981.48
445.008	1040.72
445.214	1045.16
445.42	1140.69
445.625	1209.37
445.831	1285.45
446.037	1341.36
446.242	1421.89
446.448	1453.18
446.654	1539.82
446.859	1597.21
447.065	1693.47
447.27	1731.98
447.476	1789.92
447.682	1842.5
447.887	1985.97
448.093	2064.83
448.298	2093.53
448.504	2199.79
448.709	2228.49
448.915	2360.48
449.12	2346.23
449.325	2508.95
449.531	2646.13
449.736	2685.56
449.942	2809.23
450.147	2917.15
450.352	3011.38
450.558	3041.74
450.763	3174.3
450.968	3290.55
451.174	3360.9
451.379	3360.72
451.584	3424.22
451.789	3544.55
451.995	3638.04
452.2	3641
452.405	3761.14
452.61	3794.65
452.815	3981.07
453.02	3930.54
453.226	4037.35
453.431	4139.91
453.636	4198.6
453.841	4188.97
454.046	4393.72
454.251	4483.32
454.456	4520.53
454.661	4497.21
454.866	4536.82
455.071	4582.36
455.276	4708.43
455.481	4641.6
455.686	4710.84
455.891	4786.56
456.095	4758.97
456.3	4786
456.505	4781.93
456.71	4891.34
456.915	4836.73
457.12	4825.62
457.324	4883.56
457.529	4911.7
457.734	4855.8
457.939	4896.34
458.144	4885.97
458.348	4959.47
458.553	4974.28
458.758	4898.56
458.962	4880.23
459.167	4923.55
459.372	4824.69
459.576	4850.8
459.781	4742.87
459.985	4707.14
460.19	4656.41
460.394	4602.73
460.599	4599.4
460.803	4539.41
461.008	4525.9
461.212	4426.3
461.417	4429.08
461.621	4350.22
461.826	4363.54
462.03	4270.06
462.235	4211.93
462.439	4195.64
462.643	4149.35
462.848	4073.27
463.052	4024.95
463.256	3949.6
463.461	3786.32
463.665	3770.77
463.869	3703.57
464.074	3655.81
464.278	3592.68
464.482	3521.04
464.686	3384.97
464.89	3407
465.095	3426.81
465.299	3277.97
465.503	3248.9
465.707	3164.11
465.911	3126.9
466.115	3040.45
466.319	3034.15
466.523	2943.07
466.727	2877.91
466.931	2804.6
467.135	2708.89
467.339	2672.79
467.543	2644.83
467.747	2604.66
467.951	2554.49
468.155	2453.23
468.359	2447.68
468.563	2348.45
468.767	2297.91
468.971	2234.97
469.175	2264.4
469.379	2156.66
469.582	2145.55
469.786	2151.29
469.99	2041.69
470.194	1997.08
470.397	1985.05
470.601	1910.62
470.805	1921.73
471.009	1826.76
471.212	1836.57
471.416	1770.3
471.62	1764.56
471.823	1704.02
472.027	1699.03
472.23	1623.12
472.434	1684.22
472.638	1613.13
472.841	1569.62
473.045	1554.63
473.248	1537.97
473.452	1487.24
473.655	1476.32
473.859	1458.36
474.062	1433.55
474.266	1372.83
474.469	1384.31
474.672	1340.81
474.876	1328.59
475.079	1326.74
475.283	1299.15
475.486	1276.57
475.689	1274.16
475.893	1212.7
476.096	1250.46
476.299	1186.41
476.502	1203.63
476.706	1184.93
476.909	1166.97
477.112	1166.42
477.315	1130.69
477.519	1134.95
477.722	1142.35
477.925	1088.11
478.128	1082.56
478.331	1086.81
478.534	1067.19
478.737	1051.08
478.94	1048.31
479.143	984.44
479.346	1041.09
479.549	999.99
479.752	991.1
479.955	974.07
480.158	996.47
480.361	951.12
480.564	962.22
480.767	928.72
480.97	961.85
481.173	881.69
481.376	918.16
481.579	889.28
481.782	882.62
481.984	886.32
482.187	893.54
482.39	870.22
482.593	880.4
482.796	877.62
482.998	881.14
483.201	856.52
483.404	856.89
483.606	830.04
483.809	833.93
484.012	818.57
484.214	807.64
484.417	747.29
484.62	784.87
484.822	763.95
485.025	776.17
485.227	770.62
485.43	770.25
485.632	720.45
485.835	753.03
486.037	760.62
486.24	761.18
486.442	766.92
486.645	726.74
486.847	706.75
487.05	726.56
487.252	714.71
487.455	680.09
487.657	688.61
487.859	717.67
488.062	673.61
488.264	675.46
488.466	662.32
488.668	660.1
488.871	638.07
489.073	680.65
489.275	619.93
489.477	629.92
489.68	611.59
489.882	618.81
490.084	614.19
490.286	625.29
490.488	612.15
490.69	624.37
490.893	622.33
491.095	593.08
491.297	643.99
491.499	616.96
491.701	643.81
491.903	606.6
492.105	596.04
492.307	585.49
492.509	585.68
492.711	562.72
492.913	572.72
493.115	587.9
493.317	568.09
493.518	582.34
493.72	543.1
493.922	567.72
494.124	526.07
494.326	556.24
494.528	536.06
494.73	586.97
494.931	585.49
495.133	553.84
495.335	545.88
495.537	566.79
495.738	573.27
495.94	544.95
496.142	536.99
496.343	570.68
496.545	569.02
496.747	586.42
496.948	569.02
497.15	592.16
497.351	575.68
497.553	586.23
497.755	579.38
497.956	618.81
498.158	616.59
498.359	624.37
498.561	645.47
498.762	656.03
498.964	625.29
499.165	687.13
499.366	669.54
499.568	649.55
499.769	676.94
499.971	708.23
500.172	723.04
500.373	742.66
500.575	737.48
500.776	774.32
500.977	800.98
501.178	816.34
501.38	838.19
501.581	862.63
501.782	856.15
501.983	907.06
502.185	906.69
502.386	964.82
502.587	959.82
502.788	1021.83
502.989	1039.79
503.19	1077
503.391	1124.76
503.593	1210.66
503.794	1172.16
503.995	1241.02
504.196	1307.67
504.397	1278.42
504.598	1366.17
504.799	1407.64
505	1456.7
505.201	1497.98
505.402	1521.67
505.602	1554.81
505.803	1617.94
506.004	1683.85
506.205	1717.54
506.406	1794.74
506.607	1859.9
506.808	1965.98
507.008	1993.01
507.209	2126.48
507.41	2165.54
507.611	2211.08
507.812	2329.75
508.012	2431.38
508.213	2436.75
508.414	2583
508.614	2674.82
508.815	2756.28
509.016	2911.79
509.216	3004.72
509.417	3052.3
509.617	3191.7
509.818	3237.98
510.019	3352.02
510.219	3447.17
510.42	3545.66
510.62	3620.26
510.821	3700.61
511.021	3844.27
511.222	3951.82
511.422	3997.92
511.623	4160.28
511.823	4271.35
512.023	4364.66
512.224	4483.88
512.424	4604.58
512.624	4796.18
512.825	4958.91
513.025	5100.53
513.225	5204.76
513.426	5388.4
513.626	5520.21
513.826	5708.86
514.026	5908.98
514.227	6021.9
514.427	6153.9
514.627	6325.51
514.827	6428.81
515.027	6530.45
515.228	6713.35
515.428	6801.1
515.628	6861.45
515.828	6989.74
516.028	7078.79
516.228	7199.68
516.428	7339.08
516.628	7472.92
516.828	7553.27
517.028	7674.52
517.228	7830.22
517.428	7944.81
517.628	8018.86
517.828	8294.88
518.028	8429.84
518.228	8516.11
518.428	8683.65
518.627	8785.47
518.827	8947.64
519.027	9052.05
519.227	9390.83
519.427	9366.02
519.626	9396.2
519.826	9575.03
520.026	9668.89
520.226	9709.43
520.425	9852.9
520.625	9846.05
520.825	9907.15
521.024	9836.43
521.224	9913.99
521.424	9968.42
521.623	9974.72
521.823	10030.44
522.023	10065.8
522.222	10172.43
522.422	10060.98
522.621	10217.6
522.821	10265.73
523.02	10170.39
523.22	10297.76
523.419	10369.41
523.619	10413.84
523.818	10463.82
524.017	10533.24
524.217	10459.19
524.416	10628.21
524.616	10584.15
524.815	10554.35
525.014	10561.01
525.214	10598.59
525.413	10535.46
525.612	10499.55
525.812	10455.86
526.011	10320.35
526.21	10327.38
526.409	10222.04
526.608	10169.1
526.808	10143.37
527.007	9989.9
527.206	9918.44
527.405	9881.97
527.604	9798.66
527.803	9782.19
528.003	9725.72
528.202	9749.42
528.401	9669.81
528.6	9542.08
528.799	9636.68
528.998	9499.5
529.197	9433.78
529.396	9426.93
529.595	9378.24
529.794	9342.33
529.993	9134.24
530.192	9126.65
530.39	8998.36
530.589	8940.23
530.788	8845.63
530.987	8686.05
531.186	8684.02
531.385	8511.85
531.583	8495.56
531.782	8326.72
531.981	8256.19
532.18	8140.49
532.379	8115.68
532.577	8034.22
532.776	7921.85
532.975	7852.43
533.173	7754.87
533.372	7704.7
533.571	7650.83
533.769	7529.76
533.968	7550.12
534.166	7300.38
534.365	7368.33
534.564	7138.03
534.762	7084.9
534.961	7083.42
535.159	6959.38
535.358	6909.95
535.556	6833.5
535.755	6670.4
535.953	6570.06
536.151	6549.88
536.35	6463.8
536.548	6376.24
536.747	6312.18
536.945	6224.62
537.143	6182.04
537.342	6127.06
537.54	6061.71
537.738	6005.8
537.937	5928.05
538.135	5882.69
538.333	5868.81
538.531	5754.77
538.73	5755.69
538.928	5622.4
539.126	5507.62
539.324	5564.09
539.522	5461.9
539.72	5353.04
539.919	5298.43
540.117	5226.05
540.315	5176.25
540.513	5075.54
540.711	5007.78
540.909	4970.2
541.107	4924.48
541.305	4909.3
541.503	4816.55
541.701	4720.1
541.899	4736.76
542.097	4664.56
542.295	4608.47
542.493	4572.92
542.691	4546.45
542.888	4496.1
543.086	4474.99
543.284	4467.77
543.482	4404.46
543.68	4378.91
543.878	4355.95
544.075	4317.82
544.273	4305.23
544.471	4234.33
544.669	4227.48
544.866	4165.46
545.064	4144.17
545.262	4122.33
545.459	4081.41
545.657	3979.96
545.855	3914.43
546.052	3896.29
546.25	3934.05
546.447	3790.21
546.645	3819.09
546.842	3750.22
547.04	3664.14
547.238	3680.61
547.435	3653.96
547.633	3601.75
547.83	3595.83
548.027	3543.99
548.225	3562.69
548.422	3540.1
548.62	3481.97
548.817	3457.72
549.014	3480.49
549.212	3522.15
549.409	3451.06
549.606	3444.21
549.804	3432.73
550.001	3429.95
550.198	3392.19
550.396	3336.84
550.593	3360.16
550.79	3283.33
550.987	3213.73
551.184	3234.09
551.382	3253.34
551.579	3197.62
551.776	3193.92
551.973	3102.28
552.17	3109.13
552.367	3100.24
552.564	3050.45
552.761	2964.55
552.958	2949.74
553.155	2960.47
553.353	2958.07
553.55	2981.21
553.746	2861.43
553.943	2896.98
554.14	2911.6
554.337	2830.7
554.534	2884.57
554.731	2813.67
554.928	2841.99
555.125	2803.67
555.322	2767.57
555.519	2773.13
555.715	2768.5
555.912	2761.28
556.109	2727.59
556.306	2736.29
556.503	2726.29
556.699	2727.77
556.896	2674.82
557.093	2641.32
557.289	2642.43
557.486	2617.07
557.683	2614.66
557.879	2514.14
558.076	2537.65
558.273	2553.75
558.469	2530.06
558.666	2448.23
558.862	2408.8
559.059	2405.84
559.255	2420.28
559.452	2362.15
559.648	2321.05
559.845	2336.78
560.041	2273.84
560.238	2283.1
560.434	2271.99
560.631	2245.33
560.827	2187.76
561.023	2194.79
561.22	2231.26
561.416	2169.99
561.612	2182.94
561.809	2139.07
562.005	2135.37
562.201	2127.41
562.398	2107.41
562.594	2066.32
562.79	2078.72
562.986	2079.64
563.182	2064.09
563.379	2042.99
563.575	1987.08
563.771	2002.45
563.967	1988.38
564.163	1956.72
564.359	1926.73
564.555	1912.66
564.751	1843.98
564.947	1825.1
565.144	1822.32
565.34	1796.4
565.536	1809.18
565.732	1730.68
565.928	1758.82
566.123	1678.85
566.319	1706.06
566.515	1651.08
566.711	1646.08
566.907	1638.67
567.103	1619.79
567.299	1600.35
567.495	1600.72
567.691	1559.07
567.886	1566.66
568.082	1568.33
568.278	1562.4
568.474	1537.04
568.669	1533.89
568.865	1515.38
569.061	1460.95
569.257	1485.02
569.452	1478.54
569.648	1473.54
569.844	1418.19
570.039	1392.46
570.235	1426.52
570.43	1363.39
570.626	1381.72
570.822	1344.88
571.017	1336.92
571.213	1305.26
571.408	1299.89
571.604	1248.8
571.799	1261.39
571.995	1209
572.19	1204.18
572.385	1169.94
572.581	1181.23
572.776	1167.9
572.972	1150.5
573.167	1133.47
573.362	1121.43
573.558	1090.89
573.753	1095.88
573.948	1088.29
574.144	1085.15
574.339	1069.23
574.534	1037.57
574.729	1038.31
574.925	1060.16
575.12	1053.68
575.315	1012.58
575.51	1030.35
575.705	1006.65
575.9	982.77
576.096	988.88
576.291	971.11
576.486	985.92
576.681	948.71
576.876	991.66
577.071	910.57
577.266	921.87
577.461	911.68
577.656	907.43
577.851	912.05
578.046	898.17
578.241	863.74
578.436	895.58
578.631	823.93
578.826	838
579.021	811.9
579.215	787.83
579.41	810.05
579.605	819.31
579.8	807.83
579.995	826.16
580.189	755.62
580.384	795.05
580.579	769.14
580.774	789.32
580.968	762.66
581.163	776.36
581.358	799.31
581.552	784.13
581.747	751.74
581.942	770.43
582.136	738.96
582.331	761.92
582.526	757.66
582.72	778.21
582.915	755.62
583.109	773.02
583.304	736.93
583.498	793.02
583.693	755.99
583.887	788.76
584.082	782.1
584.276	773.77
584.471	726.93
584.665	767.84
584.859	747.29
585.054	736.55
585.248	766.36
585.442	774.88
585.637	778.76
585.831	770.25
586.025	770.8
586.22	772.84
586.414	777.28
586.608	749.7
586.802	755.99
586.997	795.43
587.191	765.8
587.385	800.42
587.579	820.05
587.773	817.27
587.967	797.28
588.162	816.53
588.356	831.89
588.55	867.25
588.744	839.86
588.938	871.88
589.132	881.14
589.326	949.45
589.52	911.31
589.714	931.86
589.908	944.64
590.102	974.81
590.296	992.4
590.49	1010.91
590.684	1047.2
590.877	1037.94
591.071	1062.56
591.265	1100.51
591.459	1126.99
591.653	1135.69
591.847	1161.42
592.04	1183.82
592.234	1195.48
592.428	1226.58
592.622	1263.24
592.815	1273.05
593.009	1287.49
593.203	1366.72
593.397	1348.77
593.59	1371.17
593.784	1382.83
593.977	1412.27
594.171	1438.55
594.365	1517.97
594.558	1531.3
594.752	1590.36
594.945	1580.17
595.139	1652.19
595.332	1652.37
595.526	1713.65
595.719	1743.46
595.913	1816.77
596.106	1846.39
596.3	1924.88
596.493	1954.13
596.687	2004.3
596.88	2055.95
597.073	2090.01
597.267	2165.54
597.46	2225.52
597.653	2204.42
597.847	2346.41
598.04	2359.93
598.233	2506.55
598.426	2475.26
598.62	2553.01
598.813	2583.56
599.006	2682.6
599.199	2733.7
599.392	2789.79
599.586	2851.62
599.779	2924.56
599.972	2958.25
600.165	3047.67
600.358	3038.6
600.551	3209.47
600.744	3226.13
600.937	3309.62
601.13	3354.98
601.323	3431.25
601.516	3467.35
601.709	3581.2
601.902	3651.92
602.095	3694.31
602.288	3739.67
602.481	3852.97
602.674	3878.14
602.867	3989.41
603.06	4047.35
603.252	4076.97
603.445	4225.81
603.638	4256.17
603.831	4390.76
604.024	4484.8
604.216	4483.51
604.409	4622.91
604.602	4663.45
604.795	4814.7
604.987	4865.61
605.18	4975.57
605.373	5068.51
605.565	5135.52
605.758	5200.69
605.951	5308.43
606.143	5392.11
606.336	5473.56
606.528	5500.96
606.721	5605
606.913	5658.87
607.106	5793.27
607.298	5808.27
607.491	5933.04
607.683	5947.67
607.876	6010.8
608.068	6013.2
608.261	6202.03
608.453	6117.43
608.646	6333.29
608.838	6280.53
609.03	6361.61
609.223	6415.67
609.415	6505.08
609.607	6533.78
609.8	6720.57
609.992	6607.27
610.184	6766.11
610.376	6837.94
610.569	6844.97
610.761	6898.66
610.953	6971.6
611.145	7002.52
611.337	7035.84
611.529	7097.12
611.722	7217.26
611.914	7197.83
612.106	7327.78
612.298	7280.95
612.49	7469.59
612.682	7467.74
612.874	7525.31
613.066	7558.45
613.258	7601.21
613.45	7554.93
613.642	7657.12
613.834	7685.08
614.026	7815.22
614.218	7701
614.41	7808.93
614.602	7849.1
614.793	7944.62
614.985	7943.51
615.177	7898.71
615.369	7894.08
615.561	8034.78
615.753	7970.54
615.944	8092.72
616.136	7985.54
616.328	8066.07
616.52	8018.3
616.711	8097.17
616.903	8075.69
617.095	8092.35
617.286	8055.7
617.478	8151.04
617.67	8125.68
617.861	8166.59
618.053	8214.35
618.244	8163.81
618.436	8170.66
618.627	8151.78
618.819	8111.79
619.01	8210.83
619.202	8134.01
619.393	8217.87
619.585	8192.14
619.776	8179.18
619.968	8133.45
620.159	8089.58
620.351	8067.18
620.542	8073.1
620.733	8040.52
620.925	7962.58
621.116	7926.48
621.307	7929.81
621.499	7849.84
621.69	7874.09
621.881	7701.74
622.072	7877.05
622.264	7765.79
622.455	7744.69
622.646	7618.8
622.837	7621.02
623.028	7570.11
623.22	7557.15
623.411	7534.38
623.602	7440.16
623.793	7374.25
623.984	7422.2
624.175	7320.38
624.366	7333.71
624.557	7231.7
624.748	7225.22
624.939	7265.03
625.13	7163.95
625.321	7134.14
625.512	7094.9
625.703	7002.15
625.894	6992.89
626.085	6939.39
626.276	6918.47
626.467	6808.5
626.658	6802.77
626.848	6732.23
627.039	6663.55
627.23	6564.14
627.421	6508.97
627.612	6444.36
627.802	6389.19
627.993	6229.25
628.184	6185.93
628.375	6097.62
628.565	6087.62
628.756	5953.96
628.947	5921.57
629.137	5871.77
629.328	5749.03
629.519	5644.25
629.709	5641.84
629.9	5496.15
630.09	5500.4
630.281	5432.46
630.471	5432.46
630.662	5362.49
630.852	5293.25
631.043	5212.9
631.233	5211.98
631.424	5144.96
631.614	5134.04
631.805	5001.49
631.995	5003.53
632.185	4957.98
632.376	4914.11
632.566	4832.47
632.756	4840.24
632.947	4837.65
633.137	4759.16
633.327	4741.57
633.518	4629.2
633.708	4684.18
633.898	4589.77
634.088	4543.86
634.279	4495.91
634.469	4430.01
634.659	4399.83
634.849	4274.13
635.039	4255.43
635.229	4151.76
635.42	4134.17
635.61	4025.32
635.8	3974.04
635.99	3947.57
636.18	3918.13
636.37	3735.04
636.56	3751.89
636.75	3723.75
636.94	3619.71
637.13	3538.81
637.32	3486.05
637.51	3424.4
637.7	3431.99
637.89	3352.57
638.079	3357.2
638.269	3246.31
638.459	3240.76
638.649	3160.04
638.839	3179.48
639.029	3141.71
639.218	3098.21
639.408	3049.15
639.598	3022.12
639.788	3022.68
639.977	2966.58
640.167	2914.01
640.357	2933.45
640.546	2865.69
640.736	2869.76
640.926	2864.76
641.115	2845.7
641.305	2811.26
641.495	2770.35
641.684	2749.43
641.874	2712.78
642.063	2682.42
642.253	2625.4
642.442	2627.62
642.632	2564.49
642.821	2487.66
643.011	2481
643.2	2446.19
643.39	2425.65
643.579	2385.29
643.768	2316.79
643.958	2297.17
644.147	2255.7
644.336	2164.25
644.526	2163.51
644.715	2139.26
644.904	2106.3
645.094	2056.69
645.283	2020.96
645.472	2005.04
645.661	1986.9
645.851	1925.8
646.04	1906.55
646.229	1873.04
646.418	1866.93
646.607	1842.5
646.796	1800.84
646.986	1816.21
647.175	1817.32
647.364	1777.15
647.553	1759.38
647.742	1752.34
647.931	1727.53
648.12	1681.81
648.309	1713.65
648.498	1648.12
648.687	1698.84
648.876	1671.26
649.065	1640.16
649.254	1605.35
649.443	1657.56
649.632	1621.64
649.82	1592.76
650.009	1574.07
650.198	1585.54
650.387	1515.38
650.576	1521.86
650.765	1523.34
650.953	1518.9
651.142	1444.48
651.331	1440.03
651.52	1400.42
651.708	1405.79
651.897	1380.24
652.086	1368.58
652.274	1346.55
652.463	1322.48
652.652	1276.57
652.84	1284.9
653.029	1264.72
653.217	1262.87
653.406	1237.69
653.594	1217.14
653.783	1190.11
653.972	1176.78
654.16	1153.27
654.349	1115.51
654.537	1139.76
654.725	1141.24
654.914	1101.99
655.102	1125.88
655.291	1067.56
655.479	1089.03
655.667	1071.26
655.856	1062.93
656.044	1083.67
656.232	1069.41
656.421	1057.19
656.609	1054.97
656.797	1062.93
656.986	1041.09
657.174	1048.68
657.362	1021.65
657.55	1034.42
657.738	1035.9
657.927	1017.02
658.115	1003.32
658.303	977.03
658.491	995.18
658.679	996.47
658.867	985.55
659.055	931.12
659.243	965.56
659.431	938.34
659.619	965.74
659.807	937.05
659.995	942.23
660.183	922.98
660.371	910.2
660.559	921.13
660.747	906.69
660.935	860.4
661.123	849.3
661.311	837.63
661.499	847.45
661.687	813.94
661.875	827.45
662.062	817.46
662.25	796.17
662.438	796.91
662.626	805.05
662.813	757.47
663.001	787.28
663.189	746.92
663.377	737.85
663.564	746
663.752	773.77
663.94	743.59
664.127	739.33
664.315	717.49
664.502	726.74
664.69	726.56
664.878	713.97
665.065	713.41
665.253	709.16
665.44	696.75
665.628	745.81
665.815	699.34
666.003	734.15
666.19	695.83
666.378	694.72
666.565	678.98
666.752	705.64
666.94	694.16
667.127	699.9
667.315	706.93
667.502	686.57
667.689	654.91
667.877	665.28
668.064	675.65
668.251	679.54
668.438	643.62
668.626	647.51
668.813	626.03
669	636.03
669.187	614
669.374	635.11
669.562	596.78
669.749	613.45
669.936	607.15
670.123	600.67
670.31	610.67
670.497	581.97
670.684	598.45
670.871	583.09
671.058	564.94
671.245	567.91
671.432	539.03
671.619	557.54
671.806	554.21
671.993	535.69
672.18	533.1
672.367	550.5
672.554	506.44
672.741	512.92
672.928	504.22
673.115	517.18
673.302	454.24
673.488	519.03
673.675	492.19
673.862	492.37
674.049	494.6
674.235	496.08
674.422	449.42
674.609	489.6
674.796	482.56
674.982	494.97
675.169	465.16
675.356	492.74
675.542	466.27
675.729	472.94
675.916	461.46
676.102	474.42
676.289	462.2
676.475	474.79
676.662	448.13
676.848	467.57
677.035	447.39
677.221	458.13
677.408	458.31
677.594	429.99
677.781	450.54
677.967	461.46
678.154	424.06
678.34	403.14
678.526	415.18
678.713	404.62
678.899	403.51
679.085	439.61
679.272	375.93
679.458	398.33
679.644	364.27
679.831	378.52
680.017	374.26
680.203	391.11
680.389	363.71
680.576	394.44
680.762	362.6
680.948	371.3
681.134	331.87
681.32	362.97
681.506	353.34
681.692	357.05
681.879	313.17
682.065	345.01
682.251	331.87
682.437	347.79
682.623	321.5
682.809	317.24
682.995	283.74
683.181	321.87
683.367	326.13
683.553	277.07
683.739	304.66
683.924	297.44
684.11	283.37
684.296	298.73
684.482	308.17
684.668	309.84
684.854	272.26
685.04	296.14
685.225	281.52
685.411	323.35
685.597	299.1
685.783	285.59
685.968	263.19
686.154	267.63
686.34	289.66
686.526	262.08
686.711	242.45
686.897	293.18
687.083	256.71
687.268	295.95
687.454	275.59
687.639	263.74
687.825	258.74
688.01	282.81
688.196	241.53
688.382	248.93
688.567	256.34
688.752	280.22
688.938	238.38
689.123	243.19
689.309	222.09
689.494	210.06
689.68	234.49
689.865	239.68
690.05	198.76
690.236	225.24
690.421	223.02
690.606	205.98
690.792	203.39
690.977	209.13
691.162	212.09
691.348	196.91
691.533	180.99
691.718	170.81
691.903	182.47
692.089	200.24
692.274	182.29
692.459	186.92
692.644	175.07
692.829	213.57
693.014	182.47
693.199	190.99
693.384	153.04
693.569	183.21
693.755	189.14
693.94	169.51
694.125	180.25
694.31	182.29
694.495	170.44
694.68	163.22
694.864	159.7
695.049	145.08
695.234	135.82
695.419	186.92
695.604	139.71
695.789	162.48
695.974	151.56
696.159	180.44
696.344	131.93
696.528	156.74
696.713	150.45
696.898	168.77
697.083	139.71
697.267	173.4
697.452	124.34
697.637	156
697.822	140.08
698.006	133.97
698.191	142.3
698.375	148.78
698.56	139.15
698.745	138.97
698.929	138.23
699.114	138.41
699.298	117.86
699.483	118.42
699.668	103.24
699.852	120.83
700.037	95.46
700.221	110.83
700.405	146.19
700.59	122.68
700.774	100.83
700.959	96.94
701.143	106.39
701.328	137.86
701.512	101.94
701.696	85.28
701.881	81.95
702.065	108.61
702.249	93.06
702.433	107.31
702.618	86.02
702.802	96.02
702.986	85.47
703.17	161.18
703.355	97.87
703.539	81.76
703.723	106.39
703.907	117.86
704.091	101.2
704.275	111.75
704.46	75.84
704.644	93.61
704.828	86.39
705.012	71.21
705.196	87.87
705.38	57.51
705.564	109.16
705.748	105.28
705.932	82.69
706.116	71.95
706.3	80.84
706.484	88.06
706.668	98.24
706.851	110.46
707.035	105.28
707.219	110.46
707.403	84.17
707.587	74.54
707.771	96.76
707.954	78.25
708.138	72.51
708.322	73.25
708.506	55.48
708.689	88.8
708.873	46.96
709.057	81.02
709.241	77.32
709.424	77.51
709.608	70.29
709.792	88.24
709.975	54.92
710.159	77.69
710.342	67.14
710.526	75.84
710.709	34.19
710.893	74.91
711.077	62.51
711.26	82.69
711.443	49.74
711.627	82.69
711.81	66.4
711.994	25.67
712.177	46.59
712.361	44
712.544	44.37
712.727	69.36
712.911	29.37
713.094	38.63
713.277	46.03
713.461	71.77
713.644	55.66
713.827	79.17
714.011	43.81
714.194	40.85
714.377	68.62
714.56	68.81
714.743	32.15
714.927	65.66
715.11	41.59
715.293	50.85
715.476	59.73
715.659	47.33
715.842	62.7
716.025	50.85
716.208	39.93
716.391	55.85
716.575	28.08
716.758	53.62
716.941	58.07
717.124	48.81
717.306	31.97
717.489	31.04
717.672	38.63
717.855	31.04
718.038	30.3
718.221	56.77
718.404	25.86
718.587	37.33
718.77	8.08
718.952	46.03
719.135	49.55
719.318	32.15
719.501	14.56
719.684	46.22
719.866	46.03
720.049	32.71
720.232	28.63
720.414	46.96
720.597	41.78
720.78	39.37
720.962	33.82
721.145	51.96
721.328	16.6
721.51	35.67
721.693	28.82
721.875	23.63
722.058	30.85
722.24	42.33
722.423	41.96
722.605	27.52
722.788	35.48
722.97	52.14
723.153	18.27
723.335	29.37
723.518	22.34
723.7	24.93
723.882	24.75
724.065	34.93
724.247	15.49
724.429	26.6
724.612	31.78
724.794	29.74
724.976	32.89
725.159	44.74
725.341	27.34
725.523	36.41
725.705	20.67
725.888	37.15
726.07	21.6
726.252	38.44
726.434	29.56
726.616	31.22
726.798	1.79
726.98	41.04
727.162	1.6
727.345	51.4
727.527	17.71
727.709	14.56
727.891	41.04
728.073	44.18
728.255	6.6
728.437	35.67
728.619	18.82
728.801	51.4
728.982	9.38
729.164	11.6
729.346	13.27
729.528	35.85
729.71	-3.58
729.892	44.74
730.074	29.74
730.255	39.37
730.437	19.19
730.619	29
730.801	50.48
730.983	55.29
731.164	31.22
731.346	17.9
731.528	6.42
731.709	35.3
731.891	-1.73
732.073	26.97
732.254	-18.57
732.436	-4.13
732.617	0.31
732.799	42.33
732.981	12.71
733.162	20.3
733.344	7.16
733.525	22.15
733.707	3.46
733.888	16.78
734.07	18.82
734.251	39
734.433	17.53
734.614	25.67
734.795	32.34
734.977	29.19
735.158	8.27
735.34	20.49
735.521	11.6
735.702	9.38
735.883	31.22
736.065	2.53
736.246	1.42
736.427	59.55
736.609	32.34
736.79	11.05
736.971	-7.84
737.152	28.26
737.333	19.01
737.514	14.75
737.696	19.93
737.877	-7.28
738.058	11.6
738.239	31.59
738.42	31.59
738.601	16.23
738.782	5.68
738.963	43.63
739.144	23.08
739.325	18.27
739.506	-1.17
739.687	6.42
739.868	27.15
740.049	6.6
740.23	27.34
740.411	39.19
740.592	8.08
740.773	33.08
740.953	1.6
741.134	12.71
741.315	13.64
741.496	11.23
741.677	1.42
741.857	24.93
742.038	-7.1
742.219	-5.25
742.4	34.93
742.58	30.3
742.761	3.83
742.942	27.34
743.122	1.05
743.303	29.74
743.484	-2.1
743.664	29
743.845	11.23
744.025	39.37
744.206	23.63
744.386	33.26
744.567	3.83
744.748	17.34
744.928	58.07
745.108	30.67
745.289	-6.73
745.469	19.75
745.65	20.3
745.83	31.41
746.011	12.53
746.191	21.6
746.371	23.08
746.552	6.79
746.732	8.82
746.912	34.37
747.093	11.6
747.273	31.59
747.453	12.9
747.633	25.49
747.814	-4.69
747.994	14.56
748.174	20.67
748.354	25.86
748.534	4.57
748.715	19.38
748.895	11.6
749.075	31.78
749.255	25.3
749.435	12.16
749.615	13.08
749.795	14.19
749.975	9.56
750.155	19.19
750.335	17.71
750.515	16.97
750.695	9.94
750.875	34
751.055	30.11
751.235	5.86
751.415	21.97
751.595	-3.02
751.775	27.52
751.954	19.93
752.134	7.9
752.314	38.81
752.494	17.9
752.674	19.93
752.854	-4.13
753.033	19.93
753.213	-10.24
753.393	2.53
753.572	-2.28
753.752	27.15
753.932	-2.1
754.111	1.05
754.291	14.01
754.471	11.97
754.65	-3.95
754.83	-9.5
755.01	22.52
755.189	20.49
755.369	-0.8
755.548	21.78
755.728	32.89
755.907	6.23
756.087	10.31
756.266	39.93
756.446	-22.28
756.625	5.12
756.804	37.52
756.984	5.86
757.163	3.64
757.343	18.27
757.522	10.86
757.701	18.27
757.881	11.79
758.06	9.01
758.239	25.49
758.418	30.85
758.598	1.42
758.777	-0.06
758.956	1.42
759.135	22.34
759.315	12.9
759.494	43.81
759.673	7.71
759.852	10.49
760.031	-0.25
760.21	-12.84
760.389	-26.53
760.568	7.16
760.748	12.53
760.927	0.12
761.106	20.12
761.285	13.82
761.464	18.08
761.643	39.93
761.822	-8.58
762	24.19
762.179	5.86
762.358	28.82
762.537	-13.39
762.716	2.72
762.895	-13.76
763.074	-6.73
763.253	4.57
763.431	18.08
763.61	1.79
763.789	19.93
763.968	-6.54
764.147	16.23
764.325	-0.99
764.504	11.97
764.683	-2.28
764.861	3.46
765.04	-5.43
765.219	20.67
765.397	3.64
765.576	7.34
765.755	-2.65
765.933	-1.91
766.112	-12.09
766.29	24.56
766.469	-0.06
766.647	-3.39
766.826	-2.47
767.004	24.93
767.183	6.42
767.361	42.7
767.54	15.3
767.718	31.78
767.897	-13.76
768.075	-25.79
768.253	-14.5
768.432	14.56
768.61	-13.21
768.788	7.16
768.967	1.6
769.145	-21.35
769.323	18.08
769.501	10.31
769.68	-12.09
769.858	34.93
770.036	-16.72
770.214	13.27
770.393	-11.72
770.571	23.26
770.749	-19.87
770.927	-20.43
771.105	12.9
771.283	9.01
771.461	10.12
771.639	24.75
771.817	17.34
771.995	-5.06
772.173	16.04
772.351	6.6
772.529	-3.95
772.707	22.52
772.885	-14.32
773.063	17.9
773.241	10.68
773.419	5.86
773.597	24.93
773.775	0.31
773.953	-30.24
774.131	7.34
774.308	27.52
774.486	35.3
774.664	-0.43
774.842	-2.28
775.02	19.38
775.197	-1.73
775.375	13.64
775.553	13.82
775.73	-13.39
775.908	-2.84
776.086	22.15
776.263	19.01
776.441	24.56
776.619	-7.47
776.796	-1.91
776.974	23.08
777.151	-25.05
777.329	-6.36
777.506	20.49
777.684	17.53
777.861	14.01
778.039	-10.43
778.216	11.05
778.394	33.08
778.571	3.83
778.749	16.6
778.926	-19.13
779.103	8.08
779.281	7.16
779.458	26.04
779.635	7.34
779.813	12.53
779.99	-5.25
780.167	24.37
780.345	22.71
780.522	21.23
780.699	-0.06
780.876	5.68
781.054	-15.24
781.231	1.23
781.408	1.23
781.585	1.23
781.762	-4.69
781.939	22.89
782.116	-28.94
782.294	17.71
782.471	-11.54
782.648	15.3
782.825	-0.62
783.002	0.68
783.179	-7.47
783.356	7.53
783.533	-6.54
783.71	-12.28
783.887	-6.73
784.064	40.11
784.24	-14.87
784.417	-7.47
784.594	-7.28
784.771	1.6
784.948	25.12
785.125	15.12
785.302	-13.21
785.478	41.04
785.655	7.16
785.832	-16.72
786.009	1.05
786.185	-3.02
786.362	11.97
786.539	1.05
786.715	19.56
786.892	13.08
787.069	12.9
787.245	18.64
787.422	7.71
787.599	13.82
787.775	18.82
787.952	19.01
788.128	18.27
788.305	5.68
788.481	-2.47
788.658	8.08
788.834	7.9
789.011	12.16
789.187	16.78
789.364	9.75
789.54	21.41
789.717	18.45
789.893	-7.28
790.069	-1.91
790.246	-15.98
790.422	9.75
790.598	-9.13
790.775	9.38
790.951	6.79
791.127	11.42
791.304	-0.8
791.48	4.75
791.656	1.42
791.832	6.6
792.008	-14.32
792.185	9.94
792.361	4.2
792.537	14.01
792.713	-3.21
792.889	5.49
793.065	-4.5
793.241	34.56
793.417	-21.72
793.593	-16.72
793.769	-3.95
793.945	24.93
794.121	-7.28
794.297	31.97
794.473	10.68
794.649	9.56
794.825	0.12
795.001	9.94
795.177	6.23
795.353	21.04
795.529	-3.95
795.705	17.9
795.881	9.94
796.056	-3.95
796.232	-14.87
796.408	26.6
796.584	-4.13
796.76	-4.87
796.935	-26.9
797.111	-17.28
797.287	-11.91
797.462	35.67
797.638	2.34
797.814	1.23
797.989	15.49
798.165	34.93
798.341	13.27
798.516	15.86
798.692	13.82
798.867	16.04
799.043	-9.87
799.218	21.78
799.394	-8.21
799.569	38.44
799.745	-10.61
799.92	-2.84
800.096	-11.17
800.271	19.01
800.447	5.49
800.622	48.26
800.797	-16.72
800.973	-16.72
801.148	5.31
801.323	17.53
801.499	-30.61
801.674	8.45
801.849	-13.76
802.025	30.48
802.2	34.74
802.375	39.37
802.55	16.04
802.725	11.05
802.901	-1.17
803.076	12.9
803.251	-15.61
803.426	31.41
803.601	16.23
803.776	-14.87
803.951	-26.53
804.127	4.94
804.302	18.82
804.477	-7.84
804.652	15.49
804.827	1.6
805.002	-17.28
805.177	-3.76
805.352	14.01
805.526	18.08
805.701	16.6
805.876	40.11
806.051	-5.8
806.226	8.82
806.401	28.63
806.576	17.16
806.751	20.3
806.925	-9.32
807.1	-1.73
807.275	20.12
807.45	3.09
807.625	49.74
807.799	-3.02
807.974	-3.39
808.149	-24.31
808.323	0.31
808.498	-5.62
808.673	-3.02
808.847	7.71
809.022	10.86
809.197	11.05
809.371	0.31
809.546	3.46
809.72	8.08
809.895	-3.02
810.069	-5.43
810.244	6.05
810.418	18.27
810.593	18.27
810.767	12.53
810.942	1.97
811.116	23.63
811.29	-5.62
811.465	16.78
811.639	8.08
811.814	42.89
811.988	7.9
812.162	3.46
812.337	-5.43
812.511	-7.1
812.685	-3.95
812.859	-3.02
813.034	3.83
813.208	16.04
813.382	-10.24
813.556	27.15
813.73	22.34
813.905	8.64
814.079	14.38
814.253	20.67
814.427	11.6
814.601	-9.32
814.775	4.94
814.949	9.56
815.123	2.34
815.297	-21.72
815.471	-23.57
815.645	-9.5
815.819	7.9
815.993	14.38
816.167	-0.43
816.341	-6.36
816.515	-15.8
816.689	0.68
816.863	-12.65
817.037	-9.5
817.21	16.97
817.384	3.09
817.558	-7.28
817.732	24.56
817.906	4.01
818.079	7.34
818.253	1.97
818.427	13.82
818.601	1.05
818.774	18.45
818.948	-22.65
819.122	-6.17
819.295	-3.02
819.469	-6.91
819.643	-0.62
819.816	2.16
819.99	-3.76
820.163	2.53
820.337	-4.13
820.511	23.82
820.684	-1.36
820.858	26.04
821.031	-10.61
821.205	-5.62
821.378	-16.91
821.551	44.37
821.725	14.01
821.898	1.42
822.072	5.68
822.245	12.9
822.418	-3.95
822.592	-17.09
822.765	4.75
822.938	26.97
823.112	7.16
823.285	2.53
823.458	2.34
823.631	12.71
823.805	15.86
823.978	5.86
824.151	-7.28
824.324	-5.62
824.497	1.42
824.671	11.42
824.844	-6.17
825.017	26.97
825.19	-32.09
825.363	10.68
825.536	8.64
825.709	17.34
825.882	15.12
826.055	1.97
826.228	-4.87
826.401	0.68
826.574	5.31
826.747	32.89
826.92	15.86
827.093	20.86
827.266	5.49
827.439	11.97
827.612	-13.21
827.785	-5.62
827.957	14.56
828.13	-1.36
828.303	-1.36
828.476	-3.76
828.649	-5.99
828.821	23.45
828.994	-11.17
829.167	6.97
829.34	4.38
829.512	14.75
829.685	8.27
829.858	26.41
830.03	-0.99
830.203	25.3
830.375	18.64
830.548	-10.24
830.721	4.94
830.893	9.38
831.066	-9.87
831.238	3.64
831.411	24.93
831.583	6.79
831.756	9.38
831.928	25.3
832.101	4.01
832.273	10.31
832.446	6.97
832.618	13.08
832.79	-3.58
832.963	-2.47
833.135	-9.32
833.307	15.3
833.48	25.12
833.652	-4.13
833.824	19.93
833.997	-0.25
834.169	13.82
834.341	11.23
834.513	-1.73
834.686	-3.58
834.858	-9.5
835.03	29.56
835.202	-15.06
835.374	-12.84
835.546	9.56
835.718	1.97
835.891	4.38
836.063	9.94
836.235	12.53
836.407	8.45
836.579	-4.87
836.751	-0.06
836.923	-8.95
837.095	15.67
837.267	-0.06
837.439	7.53
837.611	-11.54
837.782	-3.39
837.954	-0.43
838.126	18.08
838.298	42.33
838.47	20.49
838.642	-19.87
838.814	22.52
838.985	4.57
839.157	-0.25
839.329	-18.39
839.501	29.37
839.672	2.16
839.844	33.08
840.016	-10.43
840.188	13.08
840.359	-5.43
840.531	-28.39
840.702	-9.5
840.874	23.63
841.046	8.64
841.217	-5.62
841.389	-3.39
841.56	4.57
841.732	-10.43
841.903	18.64
842.075	-14.87
842.246	4.38
842.418	6.23
842.589	1.42
842.761	16.04
842.932	19.38
843.104	-4.5
843.275	-3.58
843.446	-6.36
843.618	3.46
843.789	10.31
843.96	-13.02
844.132	20.12
844.303	-10.06
844.474	4.57
844.646	-17.09
844.817	-12.84
844.988	12.16
845.159	13.82
845.331	16.41
845.502	-17.65
845.673	28.82
845.844	-11.17
846.015	11.6
846.186	-24.13
846.357	13.82
846.528	1.05
846.7	9.19
846.871	-5.43
847.042	1.6
847.213	-10.06
847.384	51.4
847.555	6.23
847.726	-26.9
847.897	-2.47
848.067	8.27
848.238	1.42
848.409	23.26
848.58	-1.54
848.751	10.68
848.922	2.9
849.093	26.04
849.264	-1.91
849.434	5.86
849.605	-5.25
849.776	21.97
849.947	-16.54
850.117	10.68
850.288	2.53
850.459	-8.39
850.63	-0.62
850.8	24.37
850.971	28.26
851.142	14.75
851.312	-18.94
851.483	6.23
851.653	5.49
851.824	1.42
851.995	-32.27
852.165	15.86
852.336	6.6
852.506	31.97
852.677	22.34
852.847	6.23
853.018	-19.13
853.188	9.38
853.358	8.08
853.529	42.15
853.699	18.45
853.87	17.53
854.04	-14.87
854.21	-10.98
854.381	1.42
854.551	27.15
854.721	-3.58
854.892	23.26
855.062	-0.99
855.232	21.04
855.402	19.75
855.573	21.97
855.743	11.97
855.913	-2.47
856.083	17.53
856.253	15.12
856.423	-18.57
856.594	-14.69
856.764	-0.62
856.934	-0.62
857.104	-9.87
857.274	24.75
857.444	-34.87
857.614	-21.17
857.784	-12.84
857.954	10.68
858.124	7.34
858.294	-3.02
858.464	27.15
858.634	-2.47
858.804	6.05
858.974	2.9
859.143	-13.39
859.313	13.08
859.483	-21.91
859.653	5.31
859.823	-13.58
859.993	-17.83
860.162	-19.69
860.332	38.63
860.502	-15.98
860.672	18.82
860.841	6.79
861.011	-17.83
861.181	-3.39
861.35	16.6
861.52	-17.46
861.69	23.45
861.859	-3.21
862.029	17.71
862.198	9.94
862.368	-17.46
862.538	-15.24
862.707	20.3
862.877	-18.57
863.046	19.75
863.216	-19.5
863.385	22.52
863.555	10.86
863.724	-0.62
863.893	-15.24
864.063	24.93
864.232	20.12
864.402	-0.25
864.571	-6.91
864.74	3.46
864.91	-2.84
865.079	24.37
865.248	3.83
865.418	37.33
865.587	7.71
865.756	4.2
865.925	-17.83
866.094	28.82
866.264	-2.47
866.433	-2.47
866.602	-4.69
866.771	-4.87
866.94	-13.39
867.109	-8.39
867.278	-12.84
867.448	0.12
867.617	-12.47
867.786	10.49
867.955	-3.58
868.124	7.34
868.293	1.23
868.462	3.46
868.631	8.27
868.8	25.86
868.969	-6.17
869.137	18.82
869.306	-8.02
869.475	32.34
869.644	-12.09
869.813	0.12
869.982	-7.28
870.151	16.97
870.319	10.68
870.488	-14.13
870.657	7.34
870.826	-10.98
870.995	-3.39
871.163	20.67
871.332	14.93
871.501	15.67
871.669	-21.72
871.838	20.3
872.007	16.78
872.175	9.38
872.344	19.56
872.512	-23.39
872.681	-13.21
872.85	5.12
873.018	-5.62
873.187	0.86
873.355	-6.36
873.524	25.67
873.692	1.97
873.861	19.56
874.029	-8.95
874.197	13.27
874.366	19.38
874.534	-0.06
874.703	5.68
874.871	-13.21
875.039	-3.21
875.208	18.82
875.376	4.75
875.544	24
875.713	13.45
875.881	19.01
876.049	23.08
876.217	23.63
876.386	17.16
876.554	21.97
876.722	6.05
876.89	34.19
877.058	-1.73
877.226	16.97
877.395	7.53
877.563	14.93
877.731	-14.87
877.899	21.78
878.067	-13.39
878.235	20.49
878.403	-15.61
878.571	21.6
878.739	14.01
878.907	21.41
879.075	-6.36
879.243	16.23
879.411	-27.83
879.579	5.49
879.747	-7.1
879.914	9.19
880.082	1.97
880.25	23.08
880.418	-0.06
880.586	-9.13
880.754	10.12
880.921	16.23
881.089	13.45
881.257	6.05
881.425	-18.76
881.592	10.31
881.76	-15.24
881.928	20.3
882.095	17.16
882.263	29.93
882.431	4.75
882.598	27.52
882.766	-6.73
882.933	13.45
883.101	-22.09
883.269	20.12
883.436	16.41
883.604	11.6
883.771	12.9
883.939	5.86
884.106	-19.13
884.273	24.56
884.441	-4.32
884.608	28.26
884.776	-3.95
884.943	31.22
885.11	26.6
885.278	-9.69
885.445	25.86
885.613	-11.17
885.78	14.38
885.947	20.12
886.114	19.75
886.282	14.93
886.449	6.05
886.616	21.41
886.783	-14.32
886.951	1.05
887.118	-21.72
887.285	-1.36
887.452	2.9
887.619	6.97
887.786	-15.8
887.953	16.6
888.12	0.31
888.287	20.12
888.455	28.63
888.622	-2.47
888.789	13.27
888.956	-9.32
889.123	3.64
889.29	18.27
889.456	-1.73
889.623	7.34
889.79	-10.43
889.957	26.97
890.124	-18.02
890.291	31.41
890.458	2.72
890.625	38.81
890.791	13.27
890.958	21.6
891.125	-2.47
891.292	-0.43
891.459	8.64
891.625	13.82
891.792	13.45
891.959	-12.09
892.125	-9.69
892.292	11.42
892.459	-26.35
892.625	16.6
892.792	16.23
892.959	-11.91
893.125	22.89
893.292	3.46
893.458	6.97
893.625	22.52
893.791	-7.47
893.958	-1.36
894.124	2.53
894.291	18.82
894.457	-12.47
894.624	9.38
894.79	13.64
894.957	28.26
895.123	0.86
895.289	0.49
895.456	9.56
895.622	8.27
895.788	2.16
895.955	-3.02
896.121	8.82
896.287	38.26
896.454	0.49
896.62	14.19
896.786	-1.36
896.952	23.63
897.119	10.12
897.285	4.57
897.451	8.82
897.617	-0.06
897.783	-22.09
897.949	31.22
898.115	15.67
898.281	-3.02
898.448	18.27
898.614	-0.25
898.78	0.49
898.946	-24.13
899.112	13.64
899.278	8.27
899.444	-10.06
899.61	12.34
899.775	17.34
899.941	9.56
900.107	4.75
900.273	21.04
900.439	10.12
900.605	39.56
900.771	-3.95
900.937	11.6
901.102	-0.99
901.268	41.41
901.434	-0.99
901.6	26.6
901.766	8.45
901.931	28.45
902.097	-6.54
902.263	8.64
902.428	17.34
902.594	24
902.76	7.34
902.925	19.38
903.091	-5.8
903.256	25.49
903.422	24.75
903.588	17.16
903.753	-18.2
903.919	23.08
904.084	-2.28
904.25	12.71
904.415	-3.39
904.581	-4.32
904.746	1.42
904.912	-11.91
905.077	6.05
905.242	3.27
905.408	-23.2
905.573	12.16
905.738	-9.69
905.904	89.91
906.069	89.91
